"Wavelength (nm)"; "Transmittance (%)"
395,13; 82,3818
396,46; 82,6219
397,79; 83,2527
399,11; 83,7528
400,44; 82,7745
401,76; 81,5965
403,08; 83,4641
404,41; 83,3489
405,73; 82,834
407,06; 83,0227
408,38; 83,3977
409,7; 83,319
411,03; 82,9461
412,35; 82,8478
413,67; 83,3028
414,99; 83,2212
416,31; 83,8739
417,64; 83,0019
418,96; 83,3268
420,28; 82,9479
421,6; 83,203
422,92; 83,554
424,24; 83,0758
425,56; 84,0426
426,88; 82,946
428,2; 82,9754
429,52; 82,7869
430,84; 83,072
432,16; 84,0919
433,48; 83,2297
434,8; 83,7128
436,12; 83,1424
437,44; 83,3761
438,75; 83,8198
440,07; 83,1056
441,39; 83,8849
442,71; 83,1686
444,02; 83,2711
445,34; 83,6416
446,66; 83,4161
447,98; 83,9925
449,29; 83,4242
450,61; 83,5089
451,92; 83,904
453,24; 83,6287
454,55; 83,4816
455,87; 83,704
457,18; 83,4854
458,5; 83,8863
459,81; 83,7664
461,13; 83,3808
462,44; 84,0546
463,76; 83,6584
465,07; 83,4805
466,38; 84,1113
467,7; 83,3745
469,01; 83,5939
470,32; 84,0391
471,63; 83,4874
472,95; 83,7971
474,26; 83,9362
475,57; 83,2539
476,88; 83,507
478,19; 84,0519
479,5; 83,4113
480,81; 83,6783
482,13; 84,1946
483,44; 83,2347
484,75; 83,6499
486,06; 83,9472
487,37; 83,3358
488,67; 83,6905
489,98; 84,179
491,29; 83,1685
492,6; 83,2595
493,91; 83,9779
495,22; 83,4236
496,53; 83,2721
497,83; 84,0888
499,14; 83,5997
500,45; 82,8917
501,76; 83,6862
503,06; 83,9475
504,37; 83,0879
505,68; 83,4963
506,98; 84,2184
508,29; 83,345
509,6; 83,0248
510,9; 83,9498
512,21; 84,0121
513,51; 82,9852
514,82; 83,4818
516,12; 84,337
517,42; 83,4314
518,73; 83,0009
520,03; 83,9828
521,34; 84,091
522,64; 83,1863
523,94; 83,3121
525,25; 84,3948
526,55; 83,5431
527,85; 82,6618
529,15; 83,4771
530,46; 84,2372
531,76; 83,4755
533,06; 82,9637
534,36; 83,9671
535,66; 84,1359
536,96; 82,9188
538,26; 82,7178
539,56; 84,0192
540,87; 84,3497
542,17; 83,1881
543,47; 83,0255
544,76; 84,1972
546,06; 84,0056
547,36; 82,7558
548,66; 82,735
549,96; 84,1692
551,26; 84,3396
552,56; 83,1006
553,86; 82,8922
555,15; 84,047
556,45; 84,1957
557,75; 82,9222
559,05; 82,6217
560,34; 83,8776
561,64; 84,6397
562,94; 83,4969
564,23; 82,6739
565,53; 83,4979
566,82; 84,4325
568,12; 83,7286
569,41; 82,7201
570,71; 83,2163
572; 84,7098
573,3; 84,6319
574,59; 83,2471
575,89; 82,8941
577,18; 83,9966
578,47; 84,803
579,77; 83,762
581,06; 82,9172
582,35; 83,5029
583,65; 84,8797
584,94; 84,7091
586,23; 83,3546
587,52; 82,8482
588,82; 83,9596
590,11; 84,8969
591,4; 84,3036
592,69; 83,1343
593,98; 83,2402
595,27; 84,5861
596,56; 85,1301
597,85; 84,0196
599,14; 82,7899
600,43; 83,2778
601,72; 84,6991
603,01; 85,1071
604,3; 83,9566
605,59; 82,9108
606,88; 83,616
608,16; 84,9167
609,45; 85,1012
610,74; 83,8247
612,03; 82,8096
613,32; 83,3831
614,6; 84,7563
615,89; 85,2528
617,18; 84,0447
618,46; 82,9064
619,75; 83,2685
621,04; 84,6484
622,32; 85,2158
623,61; 84,2108
624,89; 82,9157
626,18; 82,7856
627,46; 84,1614
628,75; 85,2509
630,03; 84,8276
631,32; 83,4077
632,6; 82,7255
633,88; 83,6567
635,17; 84,9214
636,45; 85,1199
637,73; 83,8768
639,02; 82,6773
640,3; 82,8751
641,58; 84,282
642,86; 85,3697
644,15; 84,9408
645,43; 83,4889
646,71; 82,6319
647,99; 83,2236
649,27; 84,6579
650,55; 85,1888
651,83; 84,446
653,11; 82,9686
654,39; 82,605
655,67; 83,6904
656,95; 85,053
658,23; 85,403
659,51; 84,3275
660,79; 82,8677
662,07; 82,5879
663,35; 83,4795
664,63; 84,9015
665,91; 85,1939
667,18; 84,2822
668,46; 82,8262
669,74; 82,5071
671,02; 83,6163
672,29; 84,9226
673,57; 85,5167
674,85; 84,6792
676,12; 83,152
677,4; 82,2425
678,67; 82,8106
679,95; 84,3321
681,22; 85,1802
682,5; 84,9692
683,77; 83,6469
685,05; 82,558
686,32; 82,6665
687,6; 84,0242
688,87; 85,2962
690,15; 85,4046
691,42; 84,247
692,69; 82,7742
693,97; 82,1845
695,24; 82,8333
696,51; 84,3427
697,78; 85,3474
699,05; 85,1876
700,33; 83,8174
701,6; 82,6517
702,87; 82,4949
704,14; 83,3411
705,41; 84,7181
706,68; 85,2992
707,95; 84,7871
709,22; 83,4344
710,49; 82,2383
711,76; 82,1453
713,03; 83,2076
714,3; 84,7739
715,57; 85,5863
716,84; 85,0806
718,11; 83,7145
719,38; 82,5364
720,65; 82,2371
721,91; 83,1188
723,18; 84,4715
724,45; 85,3327
725,72; 85,0828
726,98; 83,8315
728,25; 82,511
729,52; 82,0109
730,78; 82,5818
732,05; 84,024
733,32; 85,2434
734,58; 85,5097
735,85; 84,6042
737,11; 83,0784
738,38; 82,1044
739,64; 82,1016
740,91; 83,0467
742,17; 84,4213
743,44; 85,2868
744,7; 85,0229
745,96; 83,8989
747,23; 82,5678
748,49; 81,9165
749,75; 82,1881
751,02; 83,6197
752,28; 84,7849
753,54; 85,4472
754,8; 84,994
756,06; 83,6891
757,33; 82,347
758,59; 81,7401
759,85; 82,03
761,11; 83,259
762,37; 84,6621
763,63; 85,2745
764,89; 84,8123
766,15; 83,7081
767,41; 82,467
768,67; 81,7319
769,93; 82,042
771,19; 83,2215
772,45; 84,493
773,71; 85,322
774,96; 85,1299
776,22; 84,1212
777,48; 82,6905
778,74; 81,5945
779,99; 81,4666
781,25; 82,2059
782,51; 83,6637
783,77; 84,7428
785,02; 85,3262
786,28; 84,8263
787,53; 83,6811
788,79; 82,3891
790,05; 81,6864
791,3; 81,8541
792,56; 82,6745
793,81; 83,9809
795,07; 84,9772
796,32; 85,2782
797,58; 84,4278
798,83; 83,0944
800,08; 81,8717
801,34; 81,2759
802,59; 81,541
803,84; 82,5557
805,1; 83,893
806,35; 84,9134
807,6; 85,2551
808,85; 84,6036
810,11; 83,5093
811,36; 82,3029
812,61; 81,4731
813,86; 81,3813
815,11; 82,1668
816,36; 83,4561
817,61; 84,5932
818,86; 85,0934
820,11; 84,757
821,36; 83,6212
822,61; 82,3383
823,86; 81,3088
825,11; 81,0593
826,36; 81,6617
827,61; 82,7956
828,86; 84,1147
830,11; 84,9521
831,35; 85,2009
832,6; 84,6127
833,85; 83,4998
835,1; 82,2343
836,34; 81,1973
837,59; 80,968
838,84; 81,5417
840,08; 82,6482
841,33; 83,9661
842,58; 84,8156
843,82; 84,8981
845,07; 84,3949
846,31; 83,2077
847,56; 81,9617
848,8; 81,1815
850,05; 81,0147
851,29; 81,5251
852,54; 82,633
853,78; 83,9827
855,02; 84,828
856,27; 85,2385
857,51; 84,8987
858,75; 83,7603
860; 82,3803
861,24; 81,1599
862,48; 80,6531
863,72; 80,7242
864,97; 81,6269
866,21; 82,7934
867,45; 84,1316
868,69; 84,7752
869,93; 84,9224
871,17; 84,2553
872,41; 83,1289
873,65; 82,0468
874,89; 80,9895
876,13; 80,7146
877,37; 81,1979
878,61; 82,1665
879,85; 83,3572
881,09; 84,2936
882,33; 84,935
883,57; 85,0273
884,8; 84,3787
886,04; 83,1301
887,28; 81,9383
888,52; 80,779
889,76; 80,3173
890,99; 80,6295
892,23; 81,3822
893,47; 82,5852
894,7; 83,9932
895,94; 84,7936
897,17; 84,8989
898,41; 84,5821
899,65; 83,502
900,88; 82,4427
902,12; 81,6049
903,35; 81,0102
904,59; 80,8779
905,82; 81,4029
907,05; 82,1309
908,29; 83,2838
909,52; 84,2267
910,75; 84,9543
911,99; 85,1745
913,22; 84,5748
914,45; 83,5361
915,69; 82,3767
916,92; 81,169
918,15; 80,6309
919,38; 80,4941
920,61; 81,0424
921,85; 82,0214
923,08; 83,0249
924,31; 84,2152
925,54; 84,8863
926,77; 84,9074
928; 84,5289
929,23; 83,8318
930,46; 82,8911
931,69; 81,6756
932,92; 80,665
934,15; 80,5628
935,38; 80,7445
936,6; 81,7063
937,83; 82,7041
939,06; 83,4522
940,29; 84,5709
941,52; 85,1532
942,74; 84,9337
943,97; 84,3485
945,2; 83,5682
946,42; 81,9788
947,65; 81,2218
948,88; 80,6481
950,1; 80,1373
951,33; 80,27
952,55; 81,5541
953,78; 82,6582
955,01; 83,8124
956,23; 84,7544
957,46; 84,7669
958,68; 85,041
959,9; 84,3691
961,13; 83,6844
962,35; 82,7363
963,58; 81,2772
964,8; 80,7536
966,02; 80,3955
967,24; 80,4351
968,47; 80,8932
969,69; 82,006
970,91; 83,3008
972,13; 83,8627
973,36; 84,8742
974,58; 85,3255
975,8; 85,0415
977,02; 83,9166
978,24; 82,7258
979,46; 82,0765
980,68; 81,017
981,9; 80,2413
983,12; 79,9086
984,34; 80,5443
985,56; 81,252
986,78; 82,113
988; 82,9674
989,22; 84,0454
990,44; 84,7815
991,65; 85,3819
992,87; 84,8478
994,09; 84,3955
995,31; 83,2996
996,53; 82,3329
997,74; 81,4444
998,96; 80,3491
1000,18; 80,5813
1001,39; 80,0276
1002,61; 80,9535
1003,83; 81,1647
1005,04; 81,923
1006,26; 83,0867
1007,47; 83,7509
1008,69; 85,6494
1009,9; 84,9457
1011,12; 85,4476
1012,33; 84,6435
1013,54; 82,9015
1014,76; 82,0045
1015,97; 80,4001
1017,19; 80,5013
1018,4; 79,2176
1019,61; 79,2473
1020,83; 80,0015
1022,04; 80,161
1023,25; 81,5991
1024,46; 82,8466
1025,67; 84,2542
1026,89; 84,6181
1028,1; 84,7897
1029,31; 85,3604
1030,52; 85,2684
1031,73; 83,3538
1032,94; 83,6573
1034,15; 83,5716
1035,36; 81,484
1036,57; 80,3205
1037,78; 79,4049
1038,99; 78,7841
1040,2; 80,324
