"Wavelength (nm)"; "Transmittance (%)"
395,13; 83,4837
396,46; 83,6607
397,79; 82,8688
399,11; 82,3045
400,44; 84,081
401,76; 83,2148
403,08; 83,4362
404,41; 82,907
405,73; 83,2915
407,06; 83,7736
408,38; 83,3075
409,7; 83,4364
411,03; 82,8936
412,35; 83,3639
413,67; 83,6075
414,99; 84,1877
416,31; 83,7169
417,64; 83,5344
418,96; 83,5407
420,28; 83,2654
421,6; 83,5851
422,92; 83,7371
424,24; 84,2704
425,56; 83,4365
426,88; 84,1601
428,2; 83,6222
429,52; 83,6911
430,84; 84,1475
432,16; 83,6997
433,48; 84,2522
434,8; 83,8955
436,12; 83,9713
437,44; 84,1179
438,75; 83,4883
440,07; 84,1256
441,39; 83,786
442,71; 83,8753
444,02; 84,2723
445,34; 83,4526
446,66; 84,1616
447,98; 83,8366
449,29; 83,6747
450,61; 84,4097
451,92; 83,6975
453,24; 84,3124
454,55; 84,1196
455,87; 83,7584
457,18; 84,2488
458,5; 84,1917
459,81; 84,0035
461,13; 84,5594
462,44; 84,0073
463,76; 84,0707
465,07; 84,4138
466,38; 83,8156
467,7; 84,0962
469,01; 84,5758
470,32; 83,907
471,63; 84,0582
472,95; 84,3863
474,26; 83,597
475,57; 84,3161
476,88; 84,576
478,19; 83,7863
479,5; 84,1109
480,81; 84,4239
482,13; 83,7655
483,44; 84,2842
484,75; 84,6542
486,06; 83,7817
487,37; 83,788
488,67; 84,5689
489,98; 83,8711
491,29; 83,736
492,6; 84,5479
493,91; 83,9401
495,22; 83,5018
496,53; 84,4026
497,83; 84,3485
499,14; 83,4668
500,45; 84,2446
501,76; 84,7101
503,06; 83,5582
504,37; 83,8721
505,68; 84,7817
506,98; 84,0645
508,29; 83,512
509,6; 84,4659
510,9; 84,6229
512,21; 83,6011
513,51; 83,6957
514,82; 84,8661
516,12; 84,1383
517,42; 83,4015
518,73; 84,261
520,03; 84,6807
521,34; 83,6292
522,64; 83,5087
523,94; 84,6405
525,25; 84,5125
526,55; 83,3092
527,85; 83,7777
529,15; 84,8573
530,46; 84,3319
531,76; 83,3793
533,06; 84,0219
534,36; 84,8134
535,66; 83,9338
536,96; 83,3125
538,26; 84,2995
539,56; 84,9707
540,87; 83,9941
542,17; 83,2097
543,47; 84,2614
544,76; 85,0701
546,06; 83,9243
547,36; 83,2877
548,66; 84,2832
549,96; 84,9088
551,26; 83,914
552,56; 83,1494
553,86; 84,2025
555,15; 85,1089
556,45; 84,2376
557,75; 83,1197
559,05; 83,694
560,34; 84,9989
561,64; 84,6375
562,94; 83,443
564,23; 83,6285
565,53; 84,8993
566,82; 85,0663
568,12; 83,731
569,41; 83,303
570,71; 84,5503
572; 85,3472
573,3; 84,4704
574,59; 83,3548
575,89; 83,8355
577,18; 85,229
578,47; 85,1688
579,77; 83,913
581,06; 83,4957
582,35; 84,6612
583,65; 85,545
584,94; 84,725
586,23; 83,5177
587,52; 83,7336
588,82; 85,1956
590,11; 85,609
591,4; 84,4815
592,69; 83,3002
593,98; 84,0832
595,27; 85,5126
596,56; 85,5351
597,85; 84,2204
599,14; 83,4851
600,43; 84,3429
601,72; 85,5905
603,01; 85,4224
604,3; 84,0231
605,59; 83,361
606,88; 84,3679
608,16; 85,678
609,45; 85,5447
610,74; 84,225
612,03; 83,3923
613,32; 84,2819
614,6; 85,7095
615,89; 85,7023
617,18; 84,4162
618,46; 83,4264
619,75; 83,9252
621,04; 85,4354
622,32; 85,8889
623,61; 84,8764
624,89; 83,5181
626,18; 83,5309
627,46; 84,8964
628,75; 85,9483
630,03; 85,4438
631,32; 83,916
632,6; 83,3727
633,88; 84,1665
635,17; 85,5846
636,45; 85,775
637,73; 84,5912
639,02; 83,3438
640,3; 83,4209
641,58; 84,8562
642,86; 85,9764
644,15; 85,6034
645,43; 84,2301
646,71; 83,2214
647,99; 83,7073
649,27; 85,1833
650,55; 85,9724
651,83; 85,4153
653,11; 83,9472
654,39; 83,2481
655,67; 83,8831
656,95; 85,3562
658,23; 85,9926
659,51; 85,2347
660,79; 83,7974
662,07; 83,1034
663,35; 83,9624
664,63; 85,443
665,91; 86,1931
667,18; 85,4452
668,46; 84,0297
669,74; 83,0577
671,02; 83,5457
672,29; 84,9967
673,57; 86,0051
674,85; 85,7074
676,12; 84,3643
677,4; 83,269
678,67; 83,2467
679,95; 84,5485
681,22; 85,9124
682,5; 86,0714
683,77; 84,9224
685,05; 83,5405
686,32; 83,0676
687,6; 83,8718
688,87; 85,2704
690,15; 86,1875
691,42; 85,6229
692,69; 84,3192
693,97; 83,06
695,24; 83,0096
696,51; 84,2244
697,78; 85,5775
699,05; 86,1579
700,33; 85,4463
701,6; 84,1085
702,87; 82,9996
704,14; 83,1717
705,41; 84,3397
706,68; 85,673
707,95; 86,0701
709,22; 85,3255
710,49; 83,9395
711,76; 83,0052
713,03; 83,2246
714,3; 84,3055
715,57; 85,6422
716,84; 86,1747
718,11; 85,5085
719,38; 84,0286
720,65; 82,8807
721,91; 82,8416
723,18; 83,9818
724,45; 85,386
725,72; 86,189
726,98; 85,9524
728,25; 84,6686
729,52; 83,3381
730,78; 82,747
732,05; 83,2585
733,32; 84,4838
734,58; 85,7466
735,85; 86,0849
737,11; 85,2474
738,38; 83,8906
739,64; 82,9113
740,91; 82,8309
742,17; 83,7029
743,44; 85,0353
744,7; 85,997
745,96; 86,0494
747,23; 84,8571
748,49; 83,4662
749,75; 82,574
751,02; 82,6344
752,28; 83,8315
753,54; 85,2993
754,8; 86,1607
756,06; 86,0292
757,33; 84,8574
758,59; 83,4632
759,85; 82,65
761,11; 82,6008
762,37; 83,4561
763,63; 84,8387
764,89; 85,9098
766,15; 85,8637
767,41; 85,0032
768,67; 83,6884
769,93; 82,617
771,19; 82,4088
772,45; 83,1323
773,71; 84,4227
774,96; 85,693
776,22; 86,0865
777,48; 85,521
778,74; 84,2632
779,99; 82,918
781,25; 82,2988
782,51; 82,5338
783,77; 83,6295
785,02; 84,9168
786,28; 85,8839
787,53; 86,1011
788,79; 85,3314
790,05; 83,9825
791,3; 82,6964
792,56; 82,2515
793,81; 82,545
795,07; 83,6012
796,32; 85,0584
797,58; 85,8488
798,83; 85,8488
800,08; 85,0935
801,34; 83,8527
802,59; 82,6804
803,84; 82,0139
805,1; 82,3982
806,35; 83,4002
807,6; 84,7714
808,85; 85,7143
810,11; 86,0599
811,36; 85,4486
812,61; 84,2681
813,86; 82,9571
815,11; 82,0358
816,36; 82,048
817,61; 82,8671
818,86; 84,0663
820,11; 85,3148
821,36; 85,9452
822,61; 85,8945
823,86; 84,8445
825,11; 83,6369
826,36; 82,4406
827,61; 81,936
828,86; 82,1831
830,11; 83,2647
831,35; 84,4625
832,6; 85,5139
833,85; 85,9866
835,1; 85,6925
836,34; 84,647
837,59; 83,4482
838,84; 82,2611
840,08; 81,7929
841,33; 82,0033
842,58; 82,8785
843,82; 84,2775
845,07; 85,4179
846,31; 85,9964
847,56; 85,6419
848,8; 84,891
850,05; 83,6608
851,29; 82,5316
852,54; 81,8626
853,78; 81,9858
855,02; 82,555
856,27; 83,5994
857,51; 85,0227
858,75; 85,722
860; 85,9524
861,24; 85,2714
862,48; 83,9256
863,72; 82,9582
864,97; 81,9103
866,21; 81,5463
867,45; 81,8223
868,69; 82,6574
869,93; 83,9231
871,17; 85,2205
872,41; 86,0038
873,65; 85,8888
874,89; 85,2277
876,13; 84,0005
877,37; 82,6969
878,61; 81,8129
879,85; 81,4807
881,09; 81,8461
882,33; 82,6162
883,57; 83,8354
884,8; 84,9891
886,04; 85,9012
887,28; 86,0201
888,52; 85,2583
889,76; 84,3382
890,99; 83,2497
892,23; 82,0966
893,47; 81,4208
894,7; 81,3779
895,94; 82,0149
897,17; 83,0993
898,41; 84,2965
899,65; 85,2682
900,88; 85,6319
902,12; 85,6255
903,35; 85,2155
904,59; 84,0896
905,82; 82,7192
907,05; 81,8929
908,29; 81,3045
909,52; 81,5402
910,75; 82,4335
911,99; 83,5814
913,22; 84,7667
914,45; 85,5023
915,69; 86,0436
916,92; 85,8835
918,15; 84,919
919,38; 83,9476
920,61; 82,8967
921,85; 81,8879
923,08; 81,2465
924,31; 81,1489
925,54; 81,9124
926,77; 82,8349
928; 84,201
929,23; 85,3446
930,46; 85,8941
931,69; 86,1175
932,92; 85,746
934,15; 84,9292
935,38; 83,4835
936,6; 82,3071
937,83; 81,7833
939,06; 81,367
940,29; 81,425
941,52; 82,1505
942,74; 83,3564
943,97; 84,2942
945,2; 85,0659
946,42; 85,6641
947,65; 86,1229
948,88; 85,7504
950,1; 84,4802
951,33; 83,3818
952,55; 82,1219
953,78; 81,4851
955,01; 81,0271
956,23; 81,2477
957,46; 81,8308
958,68; 82,9479
959,9; 83,8499
961,13; 85,0442
962,35; 85,8019
963,58; 86,4024
964,8; 86,137
966,02; 85,2808
967,24; 83,7903
968,47; 82,9659
969,69; 82,0303
970,91; 81,5162
972,13; 81,0359
973,36; 81,5521
974,58; 82,1307
975,8; 82,9571
977,02; 83,973
978,24; 85,0211
979,46; 85,4831
980,68; 85,8292
981,9; 86,1498
983,12; 84,8365
984,34; 83,9302
985,56; 82,9429
986,78; 81,8336
988; 81,5218
989,22; 81,4596
990,44; 81,5046
991,65; 81,3129
992,87; 82,0735
994,09; 83,4247
995,31; 84,3058
996,53; 85,4163
997,74; 85,598
998,96; 85,666
1000,18; 85,321
1001,39; 84,0976
1002,61; 83,2535
1003,83; 82,3171
1005,04; 81,7601
1006,26; 80,6976
1007,47; 81,0407
1008,69; 80,5457
1009,9; 81,3754
1011,12; 83,0403
1012,33; 84,2396
1013,54; 85,2261
1014,76; 86,6358
1015,97; 85,9366
1017,19; 86,4941
1018,4; 85,3676
1019,61; 84,8869
1020,83; 83,417
1022,04; 83,364
1023,25; 82,4168
1024,46; 80,3641
1025,67; 80,9903
1026,89; 80,8533
1028,1; 82,0534
1029,31; 82,0598
1030,52; 82,9104
1031,73; 83,9868
1032,94; 85,4159
1034,15; 85,1623
1035,36; 86,4067
1036,57; 84,6104
1037,78; 84,1956
1038,99; 84,3695
1040,2; 82,8689
