"Wavelength (nm)"; "Transmittance (%)"
395,13; 82,9871
396,46; 82,9591
397,79; 83,5335
399,11; 83,9736
400,44; 83,6958
401,76; 83,4003
403,08; 84,4663
404,41; 83,0705
405,73; 83,5985
407,06; 83,632
408,38; 83,0387
409,7; 83,5659
411,03; 83,3775
412,35; 83,7094
413,67; 83,5004
414,99; 83,9817
416,31; 83,8181
417,64; 83,8232
418,96; 83,2678
420,28; 83,7055
421,6; 83,3326
422,92; 83,9839
424,24; 84,1129
425,56; 83,6671
426,88; 83,6419
428,2; 83,7672
429,52; 83,7624
430,84; 84,0112
432,16; 83,8357
433,48; 83,9911
434,8; 83,8321
436,12; 84,1626
437,44; 83,9315
438,75; 83,674
440,07; 84,3685
441,39; 83,7274
442,71; 83,8762
444,02; 84,1578
445,34; 83,567
446,66; 84,1625
447,98; 83,7279
449,29; 83,9443
450,61; 84,4632
451,92; 83,8015
453,24; 84,3132
454,55; 84,0214
455,87; 83,8077
457,18; 84,3444
458,5; 83,9596
459,81; 83,8217
461,13; 84,5601
462,44; 83,9641
463,76; 84,1143
465,07; 84,5407
466,38; 83,8574
467,7; 84,1774
469,01; 84,458
470,32; 83,7536
471,63; 84,0964
472,95; 84,4238
474,26; 83,7418
475,57; 84,3872
476,88; 84,7141
478,19; 83,8204
479,5; 84,0131
480,81; 84,3607
482,13; 83,6726
483,44; 84,1327
484,75; 84,4472
486,06; 83,6082
487,37; 83,96
488,67; 84,7372
489,98; 83,899
491,29; 83,6287
492,6; 84,5483
493,91; 84,0444
495,22; 83,6041
496,53; 84,4529
497,83; 84,1792
499,14; 83,4672
500,45; 84,1529
501,76; 84,5318
503,06; 83,5585
504,37; 83,8091
505,68; 84,6175
506,98; 83,9447
508,29; 83,3369
509,6; 84,4853
510,9; 84,679
512,21; 83,5651
513,51; 83,625
514,82; 84,6746
516,12; 84,1899
517,42; 83,4858
518,73; 84,2942
520,03; 84,6163
521,34; 83,5656
522,64; 83,4462
523,94; 84,5633
525,25; 84,5281
526,55; 83,3094
527,85; 83,8076
529,15; 84,682
530,46; 84,13
531,76; 83,2229
533,06; 84,0081
534,36; 85,0361
535,66; 83,9615
536,96; 83,2179
538,26; 84,0982
539,56; 84,8778
540,87; 83,9811
542,17; 83,3796
543,47; 84,3264
544,76; 85,006
546,06; 83,7079
547,36; 83,0477
548,66; 84,2708
549,96; 84,9714
551,26; 83,9638
552,56; 83,1496
553,86; 84,0302
555,15; 84,8635
556,45; 84,0909
557,75; 83,1077
559,05; 83,9617
560,34; 85,0112
561,64; 84,5891
562,94; 83,2256
564,23; 83,4119
565,53; 84,8515
566,82; 85,0903
568,12; 83,8499
569,41; 83,2321
570,71; 84,5033
572; 85,2297
573,3; 84,2833
574,59; 83,3085
575,89; 83,9862
577,18; 85,2986
578,47; 85,2723
579,77; 83,8332
581,06; 83,3135
582,35; 84,525
583,65; 85,4658
584,94; 84,7365
586,23; 83,5518
587,52; 83,7338
588,82; 85,1844
590,11; 85,4619
591,4; 84,3004
592,69; 83,3004
593,98; 84,1743
595,27; 85,6381
596,56; 85,5467
597,85; 84,2091
599,14; 83,4396
600,43; 84,2858
601,72; 85,5335
603,01; 85,3996
604,3; 83,9774
605,59; 83,3726
606,88; 84,437
608,16; 85,6553
609,45; 85,7172
610,74; 84,1447
612,03; 83,404
613,32; 84,2821
614,6; 85,5596
615,89; 85,7025
617,18; 84,2786
618,46; 83,438
619,75; 84,0401
621,04; 85,4471
622,32; 85,8547
623,61; 84,7619
624,89; 83,4156
626,18; 83,4055
627,46; 84,8852
628,75; 85,9714
630,03; 85,4667
631,32; 84,0069
632,6; 83,3163
633,88; 84,0761
635,17; 85,4381
636,45; 85,7301
637,73; 84,5689
639,02; 83,3103
640,3; 83,4099
641,58; 84,8675
642,86; 86,0544
644,15; 85,6147
645,43; 84,2414
646,71; 83,0677
647,99; 83,565
649,27; 85,0632
650,55; 85,9834
651,83; 85,3393
653,11; 83,969
654,39; 83,2266
655,67; 83,948
656,95; 85,3563
658,23; 85,9499
659,51; 85,2349
660,79; 83,7338
662,07; 83,093
663,35; 83,952
664,63; 85,3904
665,91; 86,1302
667,18; 85,2785
668,46; 83,8951
669,74; 83,0579
671,02; 83,5974
672,29; 85,0071
673,57; 85,9747
674,85; 85,6467
676,12; 84,2537
677,4; 83,1185
678,67; 83,2569
679,95; 84,5387
681,22; 85,823
682,5; 86,0023
683,77; 84,8044
685,05; 83,4133
686,32; 82,9897
687,6; 83,8914
688,87; 85,3482
690,15; 86,1684
691,42; 85,6135
692,69; 84,2525
693,97; 83,0696
695,24; 82,9816
696,51; 84,1776
697,78; 85,5031
699,05; 86,0652
700,33; 85,3629
701,6; 84,044
702,87; 83,0181
704,14; 83,2449
705,41; 84,4219
706,68; 85,6459
707,95; 86,0702
709,22; 85,2633
710,49; 83,7894
711,76; 82,7605
713,03; 83,095
714,3; 84,2712
715,57; 85,7275
716,84; 86,1493
718,11; 85,534
719,38; 84,1546
720,65; 83,0148
721,91; 82,8334
723,18; 83,8064
724,45; 85,2855
725,72; 86,0627
726,98; 85,851
728,25; 84,49
729,52; 83,2612
730,78; 82,7299
732,05; 83,3365
733,32; 84,7019
734,58; 85,8433
735,85; 86,0851
737,11; 85,203
738,38; 83,8459
739,64; 82,7942
740,91; 82,6586
742,17; 83,5476
743,44; 84,9709
744,7; 86,0251
745,96; 85,9838
747,23; 84,9326
748,49; 83,5042
749,75; 82,6507
751,02; 82,7404
752,28; 83,8414
753,54; 85,1625
754,8; 86,0524
756,06; 85,84
757,33; 84,656
758,59; 83,3012
759,85; 82,5171
761,11; 82,6526
762,37; 83,4771
763,63; 84,9442
764,89; 85,963
766,15; 85,9703
767,41; 84,939
768,67; 83,6563
769,93; 82,4983
771,19; 82,2349
772,45; 82,9141
773,71; 84,269
774,96; 85,6267
776,22; 86,0978
777,48; 85,4537
778,74; 84,2521
779,99; 82,8841
781,25; 82,322
782,51; 82,5688
783,77; 83,5828
785,02; 84,9051
786,28; 85,8961
787,53; 86,077
788,79; 85,3193
790,05; 83,871
791,3; 82,6215
792,56; 82,1502
793,81; 82,4939
795,07; 83,5626
796,32; 84,9797
797,58; 85,7564
798,83; 85,809
800,08; 85,0533
801,34; 83,8802
802,59; 82,6944
803,84; 82,098
805,1; 82,3419
806,35; 83,3577
807,6; 84,6852
808,85; 85,7145
810,11; 86,0306
811,36; 85,3889
812,61; 84,0417
813,86; 82,6829
815,11; 82,0361
816,36; 82,0326
817,61; 82,8831
818,86; 84,0984
820,11; 85,4276
821,36; 86,0109
822,61; 85,8617
823,86; 84,9445
825,11; 83,5869
826,36; 82,4239
827,61; 81,8849
828,86; 82,1315
830,11; 83,0027
831,35; 84,3038
832,6; 85,3358
833,85; 85,9328
835,1; 85,6928
836,34; 84,5922
837,59; 83,3742
838,84; 82,2427
840,08; 81,7555
841,33; 82,0608
842,58; 82,9365
843,82; 84,3361
845,07; 85,4182
846,31; 85,9967
847,56; 85,7425
848,8; 84,7901
850,05; 83,5795
851,29; 82,3872
852,54; 81,8211
853,78; 81,733
855,02; 82,4914
856,27; 83,5998
857,51; 85,176
858,75; 85,7664
860; 86,0639
861,24; 85,1374
862,48; 84,0844
863,72; 82,7986
864,97; 82,026
866,21; 81,6397
867,45; 81,8462
868,69; 82,7051
869,93; 84,0426
871,17; 85,1725
872,41; 85,7594
873,65; 85,7411
874,89; 85,1783
876,13; 83,7005
877,37; 82,6466
878,61; 81,8645
879,85; 81,3774
881,09; 81,8203
882,33; 82,7226
883,57; 83,8091
884,8; 84,9896
886,04; 85,9563
887,28; 85,9102
888,52; 85,2588
889,76; 84,2256
890,99; 82,9655
892,23; 81,8693
893,47; 81,2486
894,7; 81,2036
895,94; 82,0744
897,17; 83,1595
898,41; 84,2366
899,65; 85,3605
900,88; 85,9128
902,12; 85,7826
903,35; 85,2794
904,59; 83,898
905,82; 82,8173
907,05; 81,9916
908,29; 81,438
909,52; 81,6753
910,75; 82,2636
911,99; 83,4438
913,22; 84,8372
914,45; 85,68
915,69; 86,0085
916,92; 86,0282
918,15; 84,9926
919,38; 84,0966
920,61; 83,0478
921,85; 81,7365
923,08; 81,324
924,31; 81,3055
925,54; 81,9526
926,77; 82,7551
928; 84,1607
929,23; 85,4279
930,46; 86,0212
931,69; 85,9047
932,92; 85,6168
934,15; 84,5339
935,38; 83,3946
936,6; 82,3531
937,83; 81,5074
939,06; 80,9467
940,29; 81,2828
941,52; 82,2473
942,74; 83,2603
943,97; 84,0021
945,2; 85,0667
946,42; 85,9605
947,65; 85,8284
948,88; 85,7018
950,1; 84,4315
951,33; 83,0847
952,55; 82,2225
953,78; 81,1361
955,01; 81,2801
956,23; 81,4015
957,46; 81,8833
958,68; 82,7915
959,9; 83,6374
961,13; 85,1
962,35; 86,0284
963,58; 86,3451
964,8; 86,0187
966,02; 84,9149
967,24; 84,104
968,47; 83,2215
969,69; 82,0963
970,91; 81,3192
972,13; 80,9039
973,36; 81,5532
974,58; 81,7249
975,8; 82,822
977,02; 83,8367
978,24; 84,8146
979,46; 85,974
980,68; 85,4765
981,9; 85,8632
983,12; 84,8377
984,34; 83,7092
985,56; 82,8683
986,78; 81,6024
988; 81,3643
989,22; 81,2984
990,44; 80,7544
991,65; 81,8269
992,87; 82,5983
994,09; 83,7856
995,31; 84,7696
996,53; 85,3225
997,74; 85,891
998,96; 85,4674
1000,18; 85,8396
1001,39; 84,6312
1002,61; 83,3642
1003,83; 82,2074
1005,04; 81,4172
1006,26; 80,2279
1007,47; 80,9219
1008,69; 80,7947
1009,9; 81,7589
1011,12; 82,78
1012,33; 83,9706
1013,54; 85,0896
1014,76; 85,4944
1015,97; 85,939
1017,19; 86,3465
1018,4; 84,9115
1019,61; 84,4183
1020,83; 82,6106
1022,04; 82,8663
1023,25; 82,2471
1024,46; 80,8954
1025,67; 80,8105
1026,89; 81,6036
1028,1; 82,249
1029,31; 82,6561
1030,52; 82,9137
1031,73; 84,4117
1032,94; 84,9856
1034,15; 84,9435
1035,36; 85,9514
1036,57; 84,6142
1037,78; 84,9263
1038,99; 84,1234
1040,2; 82,873
