"Wavelength (nm)"; "Transmittance (%)"
395,13; 85,4504
396,46; 83,4003
397,79; 83,7155
399,11; 84,8659
400,44; 83,8649
401,76; 84,4807
403,08; 84,7795
404,41; 84,3625
405,73; 84,1374
407,06; 84,8387
408,38; 84,2561
409,7; 84,1458
411,03; 83,8672
412,35; 84,4928
413,67; 84,665
414,99; 84,9211
416,31; 84,5186
417,64; 84,4087
418,96; 84,4235
420,28; 84,569
421,6; 83,6112
422,92; 84,3674
424,24; 84,2526
425,56; 84,6576
426,88; 84,1973
428,2; 84,2803
429,52; 84,3811
430,84; 84,5027
432,16; 84,2675
433,48; 84,7572
434,8; 84,033
436,12; 84,4232
437,44; 84,072
438,75; 84,6256
440,07; 84,5475
441,39; 84,5863
442,71; 84,9077
444,02; 84,3583
445,34; 84,651
446,66; 84,4558
447,98; 84,2224
449,29; 84,6605
450,61; 84,5451
451,92; 84,1674
453,24; 84,7269
454,55; 84,2655
455,87; 84,5006
457,18; 84,8917
458,5; 84,3241
459,81; 85,0134
461,13; 84,8051
462,44; 84,2432
463,76; 84,7025
465,07; 84,2451
466,38; 84,4082
467,7; 84,876
469,01; 84,4062
470,32; 84,3485
471,63; 84,8993
472,95; 84,2691
474,26; 84,3491
475,57; 85,0655
476,88; 84,3356
478,19; 84,5753
479,5; 84,9
480,81; 84,1115
482,13; 84,512
483,44; 84,8891
484,75; 84,2265
486,06; 84,3774
487,37; 84,9435
488,67; 84,3987
489,98; 83,9177
491,29; 84,907
492,6; 84,4061
493,91; 84,0931
495,22; 84,8364
496,53; 84,5653
497,83; 83,7681
499,14; 84,5113
500,45; 84,8257
501,76; 83,8466
503,06; 84,2357
504,37; 85,015
505,68; 84,1639
506,98; 83,7926
508,29; 84,7801
509,6; 84,7865
510,9; 83,6712
512,21; 84,385
513,51; 84,9943
514,82; 84,117
516,12; 83,8452
517,42; 84,9161
518,73; 84,828
520,03; 83,816
521,34; 84,2656
522,64; 85,1942
523,94; 84,4757
525,25; 83,737
526,55; 84,5071
527,85; 85,2071
529,15; 84,0348
530,46; 83,6259
531,76; 84,7814
533,06; 84,8933
534,36; 83,7086
535,66; 83,808
536,96; 84,9443
538,26; 84,6855
539,56; 83,6958
540,87; 83,8852
542,17; 85,0906
543,47; 84,723
544,76; 83,6559
546,06; 83,8572
547,36; 85,0141
548,66; 84,7837
549,96; 83,6304
551,26; 83,7653
552,56; 85,0931
553,86; 84,8037
555,15; 83,5905
556,45; 83,5325
557,75; 84,8696
559,05; 85,0998
560,34; 83,7368
561,64; 83,5042
562,94; 84,6052
564,23; 85,2798
565,53; 84,1387
566,82; 83,3645
568,12; 84,2618
569,41; 85,4454
570,71; 84,7775
572; 83,6792
573,3; 84,0152
574,59; 85,3079
575,89; 85,3118
577,18; 84,226
578,47; 83,4899
579,77; 84,5479
581,06; 85,5342
582,35; 85,0713
583,65; 83,6573
584,94; 83,8366
586,23; 85,1079
587,52; 85,5829
588,82; 84,4311
590,11; 83,5447
591,4; 84,3558
592,69; 85,4758
593,98; 85,4809
595,27; 84,1057
596,56; 83,5011
597,85; 84,4948
599,14; 85,6927
600,43; 85,3426
601,72; 83,7393
603,01; 83,5852
604,3; 84,7695
605,59; 85,7445
606,88; 85,305
608,16; 83,9191
609,45; 83,675
610,74; 84,6622
612,03; 85,8674
613,32; 85,288
614,6; 83,8023
615,89; 83,3235
617,18; 84,4146
618,46; 85,8212
619,75; 85,5733
621,04; 84,3025
622,32; 83,3272
623,61; 84,2579
624,89; 85,6645
626,18; 85,6787
627,46; 84,5602
628,75; 83,4181
630,03; 83,6953
631,32; 85,0908
632,6; 85,8764
633,88; 85,3235
635,17; 83,854
636,45; 83,3017
637,73; 84,2944
639,02; 85,6712
640,3; 85,6631
641,58; 84,4739
642,86; 83,3328
644,15; 83,469
645,43; 84,7319
646,71; 85,749
647,99; 85,4901
649,27; 84,1846
650,55; 83,0816
651,83; 83,7059
653,11; 85,136
654,39; 85,9292
655,67; 85,0379
656,95; 83,8963
658,23; 83,2047
659,51; 83,7946
660,79; 85,0563
662,07; 86,0908
663,35; 85,2194
664,63; 83,6368
665,91; 83,0888
667,18; 83,5265
668,46; 85,0785
669,74; 86,0585
671,02; 85,4801
672,29; 84,0928
673,57; 83,0317
674,85; 83,4601
676,12; 84,7413
677,4; 85,8669
678,67; 85,7593
679,95; 84,7565
681,22; 83,5589
682,5; 83,2931
683,77; 84,4701
685,05; 85,6521
686,32; 85,9947
687,6; 85,2772
688,87; 83,8998
690,15; 83,2522
691,42; 83,5578
692,69; 84,708
693,97; 85,7574
695,24; 85,8252
696,51; 84,5963
697,78; 83,1091
699,05; 82,8545
700,33; 83,6992
701,6; 84,9388
702,87; 85,6694
704,14; 85,5313
705,41; 84,337
706,68; 83,1961
707,95; 83,1037
709,22; 83,9045
710,49; 85,3727
711,76; 85,9663
713,03; 85,5237
714,3; 84,1117
715,57; 83,0861
716,84; 82,7406
718,11; 83,6771
719,38; 84,989
720,65; 85,922
721,91; 85,7731
723,18; 84,7483
724,45; 83,3265
725,72; 82,6035
726,98; 83,3271
728,25; 84,3358
729,52; 85,5232
730,78; 85,7506
732,05; 85,0034
733,32; 83,5112
734,58; 82,9433
735,85; 82,8539
737,11; 83,7548
738,38; 85,2286
739,64; 86,0294
740,91; 85,7428
742,17; 84,3417
743,44; 83,1107
744,7; 82,6418
745,96; 82,8954
747,23; 84,2441
748,49; 85,4035
749,75; 85,9654
751,02; 85,475
752,28; 84,0026
753,54; 82,9211
754,8; 82,7857
756,06; 83,1356
757,33; 84,1152
758,59; 85,2632
759,85; 85,6466
761,11; 85,4636
762,37; 84,4005
763,63; 82,8317
764,89; 82,38
766,15; 82,8404
767,41; 84,0441
768,67; 84,9692
769,93; 85,7318
771,19; 85,187
772,45; 84,4759
773,71; 83,1611
774,96; 82,374
776,22; 82,3298
777,48; 83,3522
778,74; 84,6844
779,99; 85,8258
781,25; 85,7728
782,51; 85,0137
783,77; 83,7836
785,02; 82,6102
786,28; 82,3789
787,53; 82,7261
788,79; 83,4717
790,05; 84,8499
791,3; 85,5279
792,56; 85,4932
793,81; 84,6079
795,07; 83,4876
796,32; 82,4781
797,58; 82,1489
798,83; 82,6871
800,08; 83,6527
801,34; 84,8593
802,59; 85,5371
803,84; 85,337
805,1; 84,5014
806,35; 83,4564
807,6; 82,259
808,85; 81,9574
810,11; 82,5475
811,36; 83,2545
812,61; 84,6328
813,86; 85,5622
815,11; 85,47
816,36; 84,9083
817,61; 83,6405
818,86; 82,6176
820,11; 81,9613
821,36; 82,2025
822,61; 82,8587
823,86; 84,1142
825,11; 85,1215
826,36; 85,494
827,61; 85,047
828,86; 84,1896
830,11; 83,285
831,35; 82,1572
832,6; 81,7242
833,85; 82,1363
835,1; 83,2162
836,34; 84,1188
837,59; 85,2337
838,84; 85,6005
840,08; 85,1654
841,33; 84,2931
842,58; 83,0503
843,82; 82,2003
845,07; 82,1098
846,31; 82,224
847,56; 82,6402
848,8; 83,9476
850,05; 85,0494
851,29; 85,5464
852,54; 85,2916
853,78; 84,389
855,02; 83,8076
856,27; 82,7163
857,51; 81,6749
858,75; 81,8642
860; 82,6428
861,24; 83,8696
862,48; 84,4095
863,72; 85,3536
864,97; 85,6447
866,21; 85,3617
867,45; 84,4317
868,69; 83,0815
869,93; 82,0593
871,17; 81,4974
872,41; 81,7682
873,65; 82,6638
874,89; 83,666
876,13; 84,4302
877,37; 85,2938
878,61; 85,4447
879,85; 85,0056
881,09; 83,8615
882,33; 82,7353
883,57; 81,7263
884,8; 81,37
886,04; 81,6206
887,28; 82,3925
888,52; 83,3243
889,76; 84,5924
890,99; 85,0987
892,23; 85,3603
893,47; 85,38
894,7; 84,3481
895,94; 83,1686
897,17; 82,1138
898,41; 81,1334
899,65; 81,2765
900,88; 81,8705
902,12; 82,5946
903,35; 83,7676
904,59; 84,7822
905,82; 85,3754
907,05; 85,2371
908,29; 84,7973
909,52; 83,8995
910,75; 83,002
911,99; 82,1435
913,22; 81,5663
914,45; 81,4071
915,69; 82,0633
916,92; 83,0191
918,15; 84,0673
919,38; 84,8168
920,61; 85,4491
921,85; 85,1407
923,08; 84,8456
924,31; 83,832
925,54; 83,5435
926,77; 82,4048
928; 81,571
929,23; 81,5387
930,46; 81,7957
931,69; 82,5216
932,92; 83,4604
934,15; 84,4508
935,38; 85,065
936,6; 85,4194
937,83; 85,128
939,06; 84,1879
940,29; 83,4247
941,52; 82,2157
942,74; 81,4086
943,97; 81,0572
945,2; 81,0687
946,42; 81,6267
947,65; 82,5009
948,88; 83,2661
950,1; 84,293
951,33; 84,9421
952,55; 85,5521
953,78; 85,5115
955,01; 84,8273
956,23; 83,7152
957,46; 82,6781
958,68; 81,9864
959,9; 81,182
961,13; 81,1554
962,35; 81,6946
963,58; 81,8098
964,8; 82,7229
966,02; 83,9766
967,24; 85,1617
968,47; 85,7976
969,69; 85,9978
970,91; 85,5727
972,13; 84,4136
973,36; 83,8964
974,58; 82,7391
975,8; 81,8996
977,02; 81,1958
978,24; 80,9233
979,46; 81,4724
980,68; 81,6085
981,9; 82,9577
983,12; 84,0452
984,34; 84,8422
985,56; 85,4505
986,78; 85,6463
988; 85,0896
989,22; 84,4853
990,44; 83,6015
991,65; 82,393
992,87; 82,1796
994,09; 81,9199
995,31; 81,2376
996,53; 80,8668
997,74; 81,5965
998,96; 82,834
1000,18; 83,8542
1001,39; 84,3935
1002,61; 84,831
1003,83; 85,2758
1005,04; 84,9339
1006,26; 84,7338
1007,47; 84,0016
1008,69; 84,1321
1009,9; 82,9628
1011,12; 82,514
1012,33; 82,109
1013,54; 81,8013
1014,76; 81,4271
1015,97; 81,3986
1017,19; 81,9476
1018,4; 83,2873
1019,61; 84,0907
1020,83; 84,3969
1022,04; 85,6708
1023,25; 84,9028
1024,46; 85,4884
1025,67; 85,3668
1026,89; 84,1068
1028,1; 82,7707
1029,31; 82,1181
1030,52; 81,6609
1031,73; 81,6464
1032,94; 81,2243
1034,15; 82,2446
1035,36; 83,7585
1036,57; 83,1036
1037,78; 83,5867
1038,99; 83,8282
1040,2; 84,6284
