"Wavelength (nm)"; "Transmittance (%)"
395,13; 81,6282
396,46; 80,9657
397,79; 82,1443
399,11; 82,0624
400,44; 81,3647
401,76; 82,5624
403,08; 82,7782
404,41; 81,34
405,73; 81,4847
407,06; 81,8334
408,38; 81,7303
409,7; 81,7938
411,03; 81,42
412,35; 81,6576
413,67; 82,0229
414,99; 82,0495
416,31; 81,6609
417,64; 81,9521
418,96; 82,0838
420,28; 81,8014
421,6; 82,132
422,92; 82,1821
424,24; 82,2469
425,56; 81,7408
426,88; 81,8293
428,2; 82,1195
429,52; 82,3707
430,84; 82,5868
432,16; 82,4511
433,48; 82,4342
434,8; 82,2498
436,12; 81,965
437,44; 82,1276
438,75; 81,9453
440,07; 82,027
441,39; 82,4928
442,71; 82,4561
444,02; 82,8521
445,34; 82,4654
446,66; 82,2529
447,98; 82,1589
449,29; 81,6918
450,61; 82,2748
451,92; 82,3234
453,24; 82,3672
454,55; 82,8503
455,87; 82,4087
457,18; 82,2734
458,5; 82,443
459,81; 82,1027
461,13; 82,2521
462,44; 82,1447
463,76; 82,3891
465,07; 82,6003
466,38; 82,8064
467,7; 82,8022
469,01; 83,1858
470,32; 82,5309
471,63; 82,1249
472,95; 82,3797
474,26; 81,9132
475,57; 82,0799
476,88; 82,9183
478,19; 82,7179
479,5; 82,9004
480,81; 83,2792
482,13; 82,8414
483,44; 82,4946
484,75; 82,7968
486,06; 82,1109
487,37; 81,9627
488,67; 82,3472
489,98; 82,2106
491,29; 82,1066
492,6; 82,9573
493,91; 82,9402
495,22; 82,5304
496,53; 83,0015
497,83; 82,8157
499,14; 81,6858
500,45; 82,058
501,76; 82,2138
503,06; 81,6544
504,37; 82,0513
505,68; 82,9348
506,98; 82,7775
508,29; 82,5702
509,6; 83,0188
510,9; 83,0865
512,21; 82,2048
513,51; 81,9634
514,82; 82,5477
516,12; 81,7912
517,42; 81,3708
518,73; 82,2832
520,03; 82,7496
521,34; 82,2031
522,64; 82,455
523,94; 83,3114
525,25; 83,3021
526,55; 82,3309
527,85; 82,6204
529,15; 83,076
530,46; 82,1829
531,76; 81,382
533,06; 81,9285
534,36; 82,466
535,66; 81,734
536,96; 81,6982
538,26; 82,8953
539,56; 83,302
540,87; 82,76
542,17; 82,3218
543,47; 83,1541
544,76; 83,3049
546,06; 82,1906
547,36; 81,426
548,66; 82,3608
549,96; 82,6229
551,26; 81,3328
552,56; 81,3115
553,86; 82,6672
555,15; 82,8883
556,45; 82,3287
557,75; 82,1901
559,05; 82,9352
560,34; 83,7678
561,64; 82,858
562,94; 81,8942
564,23; 82,3803
565,53; 83,1177
566,82; 82,2184
568,12; 81,0358
569,41; 81,3869
570,71; 82,5949
572; 82,6532
573,3; 82,0264
574,59; 81,9984
575,89; 83,2962
577,18; 83,9437
578,47; 83,3579
579,77; 82,2724
581,06; 82,6665
582,35; 83,575
583,65; 83,5489
584,94; 82,1492
586,23; 81,3274
587,52; 82,3336
588,82; 83,2121
590,11; 82,6385
591,4; 81,563
592,69; 82,0759
593,98; 83,2811
595,27; 83,9901
596,56; 83,2898
597,85; 82,4891
599,14; 82,7821
600,43; 83,8332
601,72; 84,1599
603,01; 83,0078
604,3; 81,9004
605,59; 82,1753
606,88; 83,1446
608,16; 83,2765
609,45; 82,1177
610,74; 81,2854
612,03; 81,8973
613,32; 83,1056
614,6; 83,444
615,89; 82,4785
617,18; 81,9971
618,46; 82,5783
619,75; 83,7921
621,04; 84,251
622,32; 83,4163
623,61; 81,9294
624,89; 81,9164
626,18; 82,9672
627,46; 83,8435
628,75; 83,2472
630,03; 81,9467
631,32; 81,2398
632,6; 82,0781
633,88; 83,4542
635,17; 83,5774
636,45; 82,3708
637,73; 81,4889
639,02; 82,0508
640,3; 83,2851
641,58; 84,3541
642,86; 83,9334
644,15; 82,6892
645,43; 82,2652
646,71; 82,55
647,99; 83,7826
649,27; 84,2026
650,55; 83,4156
651,83; 82,0185
653,11; 81,4003
654,39; 82,0931
655,67; 83,1641
656,95; 83,4403
658,23; 82,553
659,51; 81,3869
660,79; 81,0563
662,07; 82,5412
663,35; 83,974
664,63; 84,0877
665,91; 82,9986
667,18; 81,9345
668,46; 82,0083
669,74; 83,0557
671,02; 84,1608
672,29; 84,6163
673,57; 83,6117
674,85; 82,5365
676,12; 81,5333
677,4; 82,1584
678,67; 83,0874
679,95; 83,687
681,22; 83,0136
682,5; 81,5597
683,77; 80,842
685,05; 80,9163
686,32; 82,3848
687,6; 83,6561
688,87; 83,3634
690,15; 82,3268
691,42; 81,4967
692,69; 81,6754
693,97; 82,7674
695,24; 83,9262
696,51; 84,3777
697,78; 84,1069
699,05; 82,8538
700,33; 82,0587
701,6; 81,9696
702,87; 82,5665
704,14; 83,7325
705,41; 83,9691
706,68; 83,4975
707,95; 82,0566
709,22; 81,0431
710,49; 80,787
711,76; 82,0279
713,03; 83,4971
714,3; 83,9697
715,57; 82,9869
716,84; 81,5349
718,11; 80,8089
719,38; 81,3149
720,65; 82,2816
721,91; 83,6457
723,18; 84,0724
724,45; 83,9038
725,72; 83,0049
726,98; 81,7718
728,25; 81,7875
729,52; 82,2783
730,78; 83,3932
732,05; 84,3136
733,32; 84,3131
734,58; 83,417
735,85; 81,9659
737,11; 81,007
738,38; 80,6757
739,64; 81,6729
740,91; 82,8119
742,17; 83,7129
743,44; 83,2412
744,7; 82,0738
745,96; 80,8136
747,23; 80,3829
748,49; 80,9465
749,75; 82,5123
751,02; 83,9301
752,28; 83,9072
753,54; 83,1929
754,8; 81,8727
756,06; 81,2438
757,33; 81,5467
758,59; 82,049
759,85; 83,5909
761,11; 84,4346
762,37; 84,7696
763,63; 84,0221
764,89; 82,5927
766,15; 81,6338
767,41; 80,8356
768,67; 80,8633
769,93; 81,8996
771,19; 82,962
772,45; 83,6576
773,71; 83,5046
774,96; 82,3361
776,22; 80,8493
777,48; 79,9323
778,74; 80,1778
779,99; 81,1205
781,25; 82,5311
782,51; 83,8032
783,77; 83,8019
785,02; 83,0034
786,28; 81,632
787,53; 80,6244
788,79; 80,5921
790,05; 80,9087
791,3; 82,1165
792,56; 83,5534
793,81; 84,2021
795,07; 84,1057
796,32; 83,1645
797,58; 82,2058
798,83; 81,189
800,08; 80,7052
801,34; 81,2293
802,59; 82,0802
803,84; 82,9156
805,1; 83,5929
806,35; 83,7483
807,6; 83,088
808,85; 81,744
810,11; 80,206
811,36; 79,7899
812,61; 79,9362
813,86; 81,0498
815,11; 82,3501
816,36; 83,5376
817,61; 83,4763
818,86; 82,9437
820,11; 81,8541
821,36; 80,7826
822,61; 80,3447
823,86; 80,2118
825,11; 80,8413
826,36; 81,8729
827,61; 83,285
828,86; 84,1409
830,11; 83,7823
831,35; 82,7291
832,6; 81,8293
833,85; 80,6409
835,1; 80,2432
836,34; 80,9526
837,59; 81,9121
838,84; 82,9635
840,08; 83,6777
841,33; 84,0728
842,58; 84,068
843,82; 83,1805
845,07; 82,0978
846,31; 80,8399
847,56; 79,7759
848,8; 79,7882
850,05; 80,6829
851,29; 81,584
852,54; 82,9193
853,78; 83,1408
855,02; 83,3787
856,27; 82,7938
857,51; 81,7352
858,75; 80,5147
860; 79,2911
861,24; 78,9631
862,48; 79,8551
863,72; 81,0834
864,97; 82,2858
866,21; 82,7537
867,45; 82,8169
868,69; 82,8504
869,93; 82,0165
871,17; 81,2556
872,41; 80,3384
873,65; 79,7428
874,89; 80,0411
876,13; 80,7632
877,37; 82,121
878,61; 82,8967
879,85; 83,7219
881,09; 84,0516
882,33; 83,5878
883,57; 82,9111
884,8; 81,6121
886,04; 80,6402
887,28; 80,3171
888,52; 80,2384
889,76; 80,6087
890,99; 81,0852
892,23; 82,2202
893,47; 83,2595
894,7; 83,9899
895,94; 84,3886
897,17; 83,4409
898,41; 81,8264
899,65; 80,253
900,88; 79,1561
902,12; 79,0225
903,35; 79,5847
904,59; 80,5077
905,82; 82,0573
907,05; 82,7533
908,29; 83,2559
909,52; 83,7711
910,75; 83,3801
911,99; 83,0235
913,22; 81,1202
914,45; 80,4101
915,69; 79,5736
916,92; 79,8016
918,15; 80,2302
919,38; 80,4801
920,61; 81,6262
921,85; 83,4347
923,08; 84,208
924,31; 84,6294
925,54; 83,9408
926,77; 83,1421
928; 82,2889
929,23; 81,3569
930,46; 80,3557
931,69; 80,5773
932,92; 80,3712
934,15; 80,8503
935,38; 81,2182
936,6; 82,3328
937,83; 83,039
939,06; 83,6094
940,29; 83,7885
941,52; 83,2557
942,74; 82,9963
943,97; 82,1493
945,2; 80,894
946,42; 80,1315
947,65; 78,9924
948,88; 78,8257
950,1; 79,6163
951,33; 79,933
952,55; 81,1512
953,78; 82,5286
955,01; 83,2985
956,23; 83,7615
957,46; 83,367
958,68; 82,35
959,9; 81,1329
961,13; 80,1047
962,35; 80,0741
963,58; 79,1075
964,8; 79,2663
966,02; 79,5683
967,24; 81,15
968,47; 81,9114
969,69; 83,2005
970,91; 83,6292
972,13; 84,0422
973,36; 84,08
974,58; 83,4118
975,8; 82,7422
977,02; 82,0403
978,24; 81,0022
979,46; 80,2442
980,68; 79,7145
981,9; 79,9675
983,12; 80,9223
984,34; 81,6599
985,56; 82,6034
986,78; 83,2084
988; 83,8317
989,22; 84,0299
990,44; 84,1708
991,65; 83,6435
992,87; 82,8331
994,09; 82,1112
995,31; 81,1102
996,53; 80,2542
997,74; 79,4125
998,96; 79,7228
1000,18; 80,2083
1001,39; 80,1546
1002,61; 80,3901
1003,83; 81,7347
1005,04; 82,4352
1006,26; 83,0151
1007,47; 83,6293
1008,69; 83,1799
1009,9; 82,3813
1011,12; 82,1273
1012,33; 81,0778
1013,54; 80,985
1014,76; 79,6655
1015,97; 79,4752
1017,19; 79,3699
1018,4; 78,7572
1019,61; 79,2438
1020,83; 81,1546
1022,04; 81,729
1023,25; 83,0241
1024,46; 84,8184
1025,67; 84,3152
1026,89; 84,0274
1028,1; 84,0574
1029,31; 82,915
1030,52; 81,7231
1031,73; 81,2984
1032,94; 81,403
1034,15; 79,5318
1035,36; 79,3398
1036,57; 79,3389
1037,78; 79,7937
1038,99; 79,3771
1040,2; 81,4986
