"Wavelength (nm)"; "Transmittance (%)"
395,13; 79,1247
396,46; 80,0466
397,79; 78,7163
399,11; 80,3213
400,44; 80,735
401,76; 80,1356
403,08; 80,4945
404,41; 80,6018
405,73; 79,9087
407,06; 80,2019
408,38; 80,3924
409,7; 79,9552
411,03; 80,1567
412,35; 80,0629
413,67; 81,043
414,99; 80,3276
416,31; 80,6056
417,64; 80,5671
418,96; 80,4385
420,28; 80,4383
421,6; 80,3848
422,92; 80,8603
424,24; 80,7742
425,56; 80,7092
426,88; 80,6771
428,2; 80,1727
429,52; 81,1894
430,84; 80,4611
432,16; 81,0107
433,48; 80,9349
434,8; 80,5812
436,12; 80,9113
437,44; 80,4305
438,75; 81,2266
440,07; 80,6065
441,39; 80,4381
442,71; 81,0403
444,02; 80,8902
445,34; 81,0785
446,66; 81,1053
447,98; 80,4956
449,29; 81,1868
450,61; 81,0154
451,92; 80,6787
453,24; 81,4438
454,55; 80,5115
455,87; 80,7975
457,18; 81,1001
458,5; 80,5024
459,81; 80,9479
461,13; 81,1277
462,44; 80,5572
463,76; 81,2357
465,07; 81,0709
466,38; 80,4128
467,7; 81,1855
469,01; 81,0375
470,32; 80,5375
471,63; 81,5057
472,95; 81,0725
474,26; 80,7274
475,57; 81,4777
476,88; 81,1513
478,19; 80,7715
479,5; 81,5001
480,81; 81,1612
482,13; 80,4283
483,44; 81,3009
484,75; 81,2873
486,06; 80,4411
487,37; 81,0276
488,67; 81,1858
489,98; 80,2093
491,29; 80,6702
492,6; 81,2518
493,91; 80,2123
495,22; 80,3222
496,53; 81,3871
497,83; 80,5452
499,14; 80,0344
500,45; 81,1356
501,76; 81,0356
503,06; 80,2061
504,37; 80,6277
505,68; 81,3541
506,98; 80,6281
508,29; 80,3774
509,6; 81,2845
510,9; 81,1082
512,21; 80,1269
513,51; 80,6986
514,82; 81,5219
516,12; 80,6149
517,42; 80,1167
518,73; 81,1611
520,03; 81,4203
521,34; 80,1668
522,64; 80,1602
523,94; 81,3204
525,25; 81,0477
526,55; 79,7713
527,85; 80,4023
529,15; 81,4215
530,46; 80,7382
531,76; 79,8368
533,06; 80,6139
534,36; 81,559
535,66; 80,5913
536,96; 79,7184
538,26; 80,7736
539,56; 81,671
540,87; 80,5072
542,17; 79,6708
543,47; 80,8265
544,76; 81,5982
546,06; 80,4345
547,36; 79,6169
548,66; 80,7499
549,96; 81,6165
551,26; 80,5055
552,56; 79,5968
553,86; 80,4956
555,15; 81,6409
556,45; 80,9066
557,75; 79,7685
559,05; 80,0672
560,34; 81,4784
561,64; 81,219
562,94; 79,9156
564,23; 79,8548
565,53; 81,2086
566,82; 81,7712
568,12; 80,5518
569,41; 79,6791
570,71; 80,5414
572; 81,8337
573,3; 81,3288
574,59; 79,8665
575,89; 79,9611
577,18; 81,321
578,47; 81,965
579,77; 80,6835
581,06; 79,7175
582,35; 80,4027
583,65; 81,8707
584,94; 81,6998
586,23; 80,2421
587,52; 79,8975
588,82; 81,0434
590,11; 82,2442
591,4; 81,5326
592,69; 79,9685
593,98; 80,05
595,27; 81,4779
596,56; 82,3717
597,85; 81,3197
599,14; 79,9309
600,43; 80,1602
601,72; 81,6897
603,01; 82,4059
604,3; 81,2999
605,59; 79,8849
606,88; 80,0307
608,16; 81,5051
609,45; 82,4506
610,74; 81,4894
612,03; 80,0314
613,32; 79,7504
614,6; 81,1104
615,89; 82,3887
617,18; 81,7794
618,46; 80,1718
619,75; 79,6324
621,04; 80,681
622,32; 82,2523
623,61; 82,0965
624,89; 80,758
626,18; 79,5888
627,46; 80,1277
628,75; 81,6539
630,03; 82,4176
631,32; 81,5285
632,6; 79,9064
633,88; 79,5873
635,17; 80,87
636,45; 82,241
637,73; 82,2518
639,02; 80,8469
640,3; 79,6579
641,58; 79,8501
642,86; 81,3856
644,15; 82,5333
645,43; 82,0777
646,71; 80,4758
647,99; 79,4446
649,27; 80,1087
650,55; 81,6704
651,83; 82,5794
653,11; 81,8143
654,39; 80,2748
655,67; 79,4364
656,95; 80,0836
658,23; 81,7611
659,51; 82,5538
660,79; 81,8753
662,07; 80,2443
663,35; 79,2495
664,63; 79,8398
665,91; 81,4735
667,18; 82,5667
668,46; 82,1347
669,74; 80,5638
671,02; 79,3577
672,29; 79,6129
673,57; 81,0176
674,85; 82,2954
676,12; 82,3824
677,4; 81,1274
678,67; 79,6542
679,95; 79,2841
681,22; 80,376
682,5; 81,9523
683,77; 82,75
685,05; 81,9686
686,32; 80,3462
687,6; 79,277
688,87; 79,586
690,15; 81,0227
691,42; 82,3463
692,69; 82,614
693,97; 81,4313
695,24; 79,8962
696,51; 79,1059
697,78; 79,786
699,05; 81,3422
700,33; 82,5931
701,6; 82,4023
702,87; 81,2145
704,14; 79,6844
705,41; 79,1395
706,68; 79,923
707,95; 81,2954
709,22; 82,4665
710,49; 82,4807
711,76; 81,1994
713,03; 79,7559
714,3; 79,0395
715,57; 79,536
716,84; 80,9898
718,11; 82,232
719,38; 82,5806
720,65; 81,6184
721,91; 80,1722
723,18; 79,1563
724,45; 79,2828
725,72; 80,4141
726,98; 81,8863
728,25; 82,6908
729,52; 82,1777
730,78; 80,7812
732,05; 79,4048
733,32; 78,9629
734,58; 79,5376
735,85; 80,9709
737,11; 82,2729
738,38; 82,6619
739,64; 81,9318
740,91; 80,4989
742,17; 79,2169
743,44; 78,9364
744,7; 79,8431
745,96; 81,2955
747,23; 82,4389
748,49; 82,6601
749,75; 81,6828
751,02; 80,181
752,28; 79,1647
753,54; 78,9406
754,8; 79,7989
756,06; 81,1806
757,33; 82,4198
758,59; 82,7043
759,85; 81,809
761,11; 80,448
762,37; 79,096
763,63; 78,726
764,89; 79,3808
766,15; 80,7289
767,41; 82,062
768,67; 82,6734
769,93; 82,2748
771,19; 80,9483
772,45; 79,3881
773,71; 78,6541
774,96; 78,8561
776,22; 79,9061
777,48; 81,4045
778,74; 82,5177
779,99; 82,7169
781,25; 81,7528
782,51; 80,2089
783,77; 78,9044
785,02; 78,3429
786,28; 78,8372
787,53; 80,1755
788,79; 81,6115
790,05; 82,5118
791,3; 82,4956
792,56; 81,4459
793,81; 79,8693
795,07; 78,7109
796,32; 78,2626
797,58; 78,768
798,83; 80,083
800,08; 81,5431
801,34; 82,5345
802,59; 82,5061
803,84; 81,576
805,1; 80,0847
806,35; 78,9381
807,6; 78,3486
808,85; 78,653
810,11; 79,7113
811,36; 81,0957
812,61; 82,2196
813,86; 82,6449
815,11; 82,0422
816,36; 80,8758
817,61; 79,478
818,86; 78,6155
820,11; 78,3503
821,36; 79,0268
822,61; 80,3874
823,86; 81,7223
825,11; 82,5453
826,36; 82,6365
827,61; 81,7503
828,86; 80,5693
830,11; 79,3021
831,35; 78,5519
832,6; 78,3906
833,85; 79,0306
835,1; 80,3915
836,34; 81,7902
837,59; 82,621
838,84; 82,8042
840,08; 82,0718
841,33; 80,721
842,58; 79,5432
843,82; 78,5646
845,07; 78,2161
846,31; 78,8242
847,56; 79,8354
848,8; 81,2315
850,05; 82,3203
851,29; 82,8304
852,54; 82,4464
853,78; 81,4177
855,02; 79,9807
856,27; 78,8361
857,51; 78,3022
858,75; 78,3185
860; 79,0425
861,24; 80,2874
862,48; 81,5965
863,72; 82,3509
864,97; 82,7768
866,21; 82,152
867,45; 80,9126
868,69; 79,6329
869,93; 78,473
871,17; 77,9134
872,41; 78,1565
873,65; 78,9949
874,89; 80,1909
876,13; 81,599
877,37; 82,5468
878,61; 82,7733
879,85; 82,3656
881,09; 80,9799
882,33; 79,5591
883,57; 78,3705
884,8; 77,7204
886,04; 77,7166
887,28; 78,5368
888,52; 79,6683
889,76; 80,9702
890,99; 82,1685
892,23; 82,8314
893,47; 82,4704
894,7; 81,4003
895,94; 80,1807
897,17; 79,0085
898,41; 77,9798
899,65; 77,6118
900,88; 77,7638
902,12; 79,019
903,35; 80,2771
904,59; 81,4278
905,82; 82,5646
907,05; 82,8813
908,29; 82,6845
909,52; 81,5333
910,75; 80,3275
911,99; 79,2307
913,22; 78,0431
914,45; 77,9273
915,69; 78,3474
916,92; 79,0349
918,15; 80,2242
919,38; 81,4339
920,61; 82,5698
921,85; 83,0756
923,08; 82,8516
924,31; 82,1374
925,54; 80,758
926,77; 79,6909
928; 78,5511
929,23; 77,9228
930,46; 77,9127
931,69; 78,6147
932,92; 79,6558
934,15; 80,7395
935,38; 81,8888
936,6; 82,5553
937,83; 83,084
939,06; 82,6271
940,29; 81,819
941,52; 80,8771
942,74; 80,0023
943,97; 78,7772
945,2; 78,1863
946,42; 78,3678
947,65; 78,8199
948,88; 79,4381
950,1; 80,8712
951,33; 81,5807
952,55; 82,6327
953,78; 83,0161
955,01; 83,0868
956,23; 82,3714
957,46; 81,7721
958,68; 80,772
959,9; 79,3084
961,13; 78,5646
962,35; 78,1457
963,58; 78,2319
964,8; 78,5386
966,02; 79,7705
967,24; 80,8075
968,47; 81,713
969,69; 82,8919
970,91; 83,1322
972,13; 83,2023
973,36; 82,1851
974,58; 81,588
975,8; 80,1392
977,02; 79,2552
978,24; 78,1671
979,46; 77,6756
980,68; 77,5648
981,9; 77,9919
983,12; 79,0815
984,34; 79,9447
985,56; 81,2414
986,78; 82,322
988; 83,2437
989,22; 83,0454
990,44; 82,6965
991,65; 81,6209
992,87; 81,0023
994,09; 79,5407
995,31; 78,3603
996,53; 77,6698
997,74; 77,2774
998,96; 77,4752
1000,18; 78,1926
1001,39; 79,0155
1002,61; 80,1804
1003,83; 81,2267
1005,04; 82,3981
1006,26; 82,7558
1007,47; 82,9855
1008,69; 82,4737
1009,9; 81,7194
1011,12; 80,2602
1012,33; 79,2111
1013,54; 78,679
1014,76; 77,6295
1015,97; 77,7739
1017,19; 77,8483
1018,4; 78,0975
1019,61; 78,071
1020,83; 78,7939
1022,04; 80,233
1023,25; 81,7978
1024,46; 82,8812
1025,67; 83,2036
1026,89; 82,7589
1028,1; 82,3914
1029,31; 80,5904
1030,52; 80,5563
1031,73; 79,2884
1032,94; 79,3504
1034,15; 77,9309
1035,36; 77,9039
1036,57; 76,9778
1037,78; 76,6475
1038,99; 78,8365
1040,2; 78,6481
