"Wavelength (nm)"; "Transmittance (%)"
395,13; 82,7156
396,46; 83,1645
397,79; 84,6255
399,11; 83,3835
400,44; 84,1597
401,76; 84,2661
403,08; 84,0412
404,41; 83,3319
405,73; 83,9725
407,06; 83,6218
408,38; 83,0029
409,7; 84,1352
411,03; 83,2817
412,35; 84,1139
413,67; 83,8048
414,99; 84,171
416,31; 83,7895
417,64; 83,7072
418,96; 83,3974
420,28; 83,505
421,6; 83,6051
422,92; 83,9296
424,24; 84,1794
425,56; 83,3007
426,88; 83,7841
428,2; 83,805
429,52; 83,8016
430,84; 83,9174
432,16; 83,5516
433,48; 84,2306
434,8; 83,8833
436,12; 83,958
437,44; 84,1514
438,75; 83,7573
440,07; 83,9867
441,39; 84,0078
442,71; 84,0665
444,02; 84,4933
445,34; 84,1379
446,66; 84,2819
447,98; 83,4978
449,29; 83,7004
450,61; 84,3464
451,92; 83,4795
453,24; 84,0573
454,55; 84,0094
455,87; 83,8807
457,18; 84,38
458,5; 84,1406
459,81; 83,8572
461,13; 84,2413
462,44; 83,7875
463,76; 84,2979
465,07; 84,174
466,38; 83,7284
467,7; 84,1899
469,01; 84,3075
470,32; 83,8192
471,63; 84,2891
472,95; 84,0947
474,26; 83,553
475,57; 84,4973
476,88; 84,346
478,19; 84,0454
479,5; 84,3915
480,81; 84,1224
482,13; 83,5082
483,44; 84,5499
484,75; 84,3558
486,06; 83,5182
487,37; 84,1449
488,67; 84,2361
489,98; 83,5135
491,29; 83,9242
492,6; 84,2903
493,91; 83,3139
495,22; 83,7373
496,53; 84,5593
497,83; 83,7972
499,14; 83,6384
500,45; 84,4217
501,76; 83,8314
503,06; 83,2493
504,37; 84,1138
505,68; 84,5105
506,98; 83,3666
508,29; 83,7309
509,6; 84,3814
510,9; 83,7265
512,21; 83,433
513,51; 84,2845
514,82; 84,1803
516,12; 83,2189
517,42; 83,5855
518,73; 84,6061
520,03; 83,9077
521,34; 83,251
522,64; 84,1165
523,94; 84,5449
525,25; 83,4304
526,55; 83,2251
527,85; 84,3062
529,15; 84,2703
530,46; 83,1433
531,76; 83,5445
533,06; 84,5553
534,36; 83,8634
535,66; 82,9343
536,96; 83,5789
538,26; 84,5716
539,56; 83,9339
540,87; 83,0822
542,17; 83,844
543,47; 84,5742
544,76; 83,6446
546,06; 82,8734
547,36; 83,5979
548,66; 84,5068
549,96; 83,9829
551,26; 82,7288
552,56; 83,6296
553,86; 84,5974
555,15; 83,7402
556,45; 82,7617
557,75; 83,503
559,05; 84,4631
560,34; 84,1622
561,64; 82,8138
562,94; 83,231
564,23; 84,3888
565,53; 84,5049
566,82; 83,0707
568,12; 82,8351
569,41; 84,0518
570,71; 84,7527
572; 83,7545
573,3; 82,8287
574,59; 83,7396
575,89; 84,9753
577,18; 84,4927
578,47; 83,27
579,77; 83,2158
581,06; 84,4526
582,35; 85,0381
583,65; 83,8601
584,94; 83,0166
586,23; 83,7684
587,52; 85,1801
588,82; 84,9323
590,11; 83,5407
591,4; 83,0689
592,69; 84,3576
593,98; 85,4087
595,27; 84,6687
596,56; 83,2369
597,85; 83,297
599,14; 84,575
600,43; 85,2859
601,72; 84,4742
603,01; 83,0809
604,3; 83,4112
605,59; 84,6676
606,88; 85,3622
608,16; 84,3878
609,45; 83,0423
610,74; 83,2268
612,03; 84,659
613,32; 85,4427
614,6; 84,5001
615,89; 82,9432
617,18; 82,9214
618,46; 84,4813
619,75; 85,4664
621,04; 84,6118
622,32; 83,1913
623,61; 82,643
624,89; 83,8782
626,18; 85,1376
627,46; 85,0183
628,75; 83,5371
630,03; 82,8878
631,32; 83,4891
632,6; 85,0308
633,88; 85,6568
635,17; 84,4887
636,45; 83,0188
637,73; 82,8339
639,02; 84,2064
640,3; 85,2426
641,58; 85,1547
642,86; 83,8816
644,15; 82,8268
645,43; 83,3787
646,71; 84,65
647,99; 85,5376
649,27; 85,0637
650,55; 83,5402
651,83; 82,777
653,11; 83,5616
654,39; 85,0452
655,67; 85,4764
656,95; 84,5014
658,23; 83,247
659,51; 82,8834
660,79; 83,539
662,07; 85,1367
663,35; 85,5611
664,63; 84,5042
665,91; 83,0025
667,18; 82,5232
668,46; 83,385
669,74; 84,919
671,02; 85,6342
672,29; 85,0321
673,57; 83,6053
674,85; 82,8256
676,12; 82,9027
677,4; 84,4362
678,67; 85,2729
679,95; 84,9124
681,22; 83,5046
682,5; 82,5541
683,77; 82,731
685,05; 83,8849
686,32; 85,3452
687,6; 85,5235
688,87; 84,3371
690,15; 82,87
691,42; 82,4411
692,69; 83,142
693,97; 84,6374
695,24; 85,8449
696,51; 85,3245
697,78; 83,9605
699,05; 82,7457
700,33; 82,7419
701,6; 83,7557
702,87; 84,8116
704,14; 85,5657
705,41; 84,7956
706,68; 83,5919
707,95; 82,3744
709,22; 82,6822
710,49; 83,78
711,76; 84,9749
713,03; 85,8136
714,3; 85,3059
715,57; 83,804
716,84; 82,1835
718,11; 82,2352
719,38; 83,5863
720,65; 84,8375
721,91; 85,6047
723,18; 85,038
724,45; 83,8733
725,72; 82,9149
726,98; 82,1905
728,25; 83,2003
729,52; 84,3165
730,78; 85,448
732,05; 85,5297
733,32; 84,4743
734,58; 82,9441
735,85; 81,9603
737,11; 82,3066
738,38; 83,4295
739,64; 84,9511
740,91; 85,3841
742,17; 85,0036
743,44; 83,8186
744,7; 82,6458
745,96; 82,1118
747,23; 82,7122
748,49; 84,1388
749,75; 85,5081
751,02; 85,9049
752,28; 84,8179
753,54; 83,5404
754,8; 82,2028
756,06; 81,9073
757,33; 82,9601
758,59; 84,2932
759,85; 85,585
761,11; 85,7295
762,37; 85,1926
763,63; 83,8252
764,89; 82,1507
766,15; 81,9797
767,41; 82,4207
768,67; 83,3864
769,93; 84,7862
771,19; 85,3507
772,45; 84,923
773,71; 83,862
774,96; 82,6288
776,22; 81,9063
777,48; 82,1743
778,74; 83,099
779,99; 84,5783
781,25; 85,7311
782,51; 86,0272
783,77; 84,8209
785,02; 83,378
786,28; 82,034
787,53; 81,7118
788,79; 82,3341
790,05; 83,1728
791,3; 84,3963
792,56; 85,2767
793,81; 85,327
795,07; 84,2929
796,32; 82,9985
797,58; 82,3168
798,83; 81,4751
800,08; 81,9421
801,34; 83,4762
802,59; 84,9777
803,84; 85,6622
805,1; 85,2879
806,35; 84,4427
807,6; 82,7603
808,85; 81,6031
810,11; 81,0671
811,36; 81,7436
812,61; 82,9625
813,86; 84,2919
815,11; 85,2502
816,36; 85,4704
817,61; 84,639
818,86; 83,5094
820,11; 81,9728
821,36; 81,5894
822,61; 81,6415
823,86; 82,4489
825,11; 83,7579
826,36; 84,6771
827,61; 85,4722
828,86; 85,2574
830,11; 84,104
831,35; 82,8239
832,6; 81,7102
833,85; 80,7373
835,1; 81,25
836,34; 82,8069
837,59; 84,2141
838,84; 84,9474
840,08; 85,338
841,33; 85,2111
842,58; 84,4235
843,82; 83,0309
845,07; 81,9863
846,31; 81,2455
847,56; 81,3888
848,8; 82,3514
850,05; 84,1381
851,29; 84,3709
852,54; 85,0892
853,78; 84,5852
855,02; 84,026
856,27; 82,8446
857,51; 82,0706
858,75; 81,1181
860; 80,9177
861,24; 81,0957
862,48; 82,6516
863,72; 84,4463
864,97; 85,3322
866,21; 85,3211
867,45; 84,7721
868,69; 83,6886
869,93; 82,5043
871,17; 81,3857
872,41; 80,7635
873,65; 80,7138
874,89; 81,5692
876,13; 83,0866
877,37; 84,1422
878,61; 84,8067
879,85; 85,1909
881,09; 84,8528
882,33; 83,3846
883,57; 82,3029
884,8; 81,4589
886,04; 81,0065
887,28; 81,1859
888,52; 82,0687
889,76; 83,2759
890,99; 84,1145
892,23; 85,1423
893,47; 85,3352
894,7; 85,35
895,94; 84,9358
897,17; 83,391
898,41; 81,9585
899,65; 80,6628
900,88; 80,6567
902,12; 81,1735
903,35; 82,1155
904,59; 83,4483
905,82; 84,6794
907,05; 85,1673
908,29; 85,3393
909,52; 85,0001
910,75; 84,1449
911,99; 83,1741
913,22; 81,6573
914,45; 80,9548
915,69; 81,0555
916,92; 81,7815
918,15; 82,5984
919,38; 83,2728
920,61; 84,5751
921,85; 85,5538
923,08; 85,8166
924,31; 85,3905
925,54; 84,5528
926,77; 83,0347
928; 81,8095
929,23; 80,831
930,46; 80,4543
931,69; 80,7208
932,92; 81,2105
934,15; 82,5877
935,38; 84,2449
936,6; 85,7823
937,83; 85,5565
939,06; 85,5587
940,29; 85,0534
941,52; 84,0475
942,74; 83,1598
943,97; 81,7241
945,2; 81,0098
946,42; 81,0902
947,65; 80,9457
948,88; 81,6734
950,1; 82,3753
951,33; 83,2872
952,55; 84,5715
953,78; 84,8124
955,01; 84,9892
956,23; 84,7528
957,46; 83,8524
958,68; 82,4208
959,9; 81,4742
961,13; 80,6738
962,35; 80,5483
963,58; 80,9424
964,8; 81,6934
966,02; 82,7363
967,24; 83,8882
968,47; 85,1563
969,69; 85,7228
970,91; 86,0514
972,13; 85,3453
973,36; 84,3073
974,58; 83,2302
975,8; 82,0099
977,02; 81,5082
978,24; 81,3066
979,46; 80,6928
980,68; 80,668
981,9; 81,5229
983,12; 82,4229
984,34; 83,1027
985,56; 84,0038
986,78; 84,9503
988; 85,3789
989,22; 85,3658
990,44; 85,1227
991,65; 83,501
992,87; 82,1596
994,09; 80,5151
995,31; 80,0277
996,53; 79,904
997,74; 80,132
998,96; 81,0697
1000,18; 82,1153
1001,39; 83,1684
1002,61; 84,1602
1003,83; 84,7209
1005,04; 86,0779
1006,26; 85,8988
1007,47; 85,3702
1008,69; 84,722
1009,9; 82,9343
1011,12; 83,0915
1012,33; 81,802
1013,54; 80,7554
1014,76; 80,855
1015,97; 80,9848
1017,19; 81,3736
1018,4; 80,8055
1019,61; 82,2939
1020,83; 83,9934
1022,04; 84,9748
1023,25; 85,5309
1024,46; 85,9631
1025,67; 86,4112
1026,89; 84,8448
1028,1; 83,1537
1029,31; 82,5856
1030,52; 80,7685
1031,73; 81,793
1032,94; 80,1638
1034,15; 80,2787
1035,36; 80,33
1036,57; 81,3117
1037,78; 81,8278
1038,99; 82,2081
1040,2; 84,632
