"Wavelength (nm)"; "Transmittance (%)"
395,13; 81,9516
396,46; 82,0085
397,79; 80,7588
399,11; 82,047
400,44; 81,5696
401,76; 81,0989
403,08; 81,7425
404,41; 81,7762
405,73; 81,9267
407,06; 81,9807
408,38; 82,1952
409,7; 81,7734
411,03; 82,0062
412,35; 81,2476
413,67; 81,951
414,99; 82,0251
416,31; 81,9276
417,64; 82,3134
418,96; 81,6551
420,28; 81,9567
421,6; 81,9345
422,92; 82,0333
424,24; 82,5375
425,56; 81,7301
426,88; 82,2547
428,2; 81,7797
429,52; 82,1236
430,84; 81,9285
432,16; 82,0425
433,48; 82,3991
434,8; 81,7576
436,12; 82,1379
437,44; 82,1976
438,75; 81,8623
440,07; 82,3758
441,39; 81,9476
442,71; 82,2931
444,02; 82,5849
445,34; 81,7207
446,66; 82,1251
447,98; 82,211
449,29; 82,0629
450,61; 82,2421
451,92; 81,8821
453,24; 82,1159
454,55; 82,3557
455,87; 81,7339
457,18; 82,1582
458,5; 81,9593
459,81; 81,7824
461,13; 82,2582
462,44; 82,2386
463,76; 81,9345
465,07; 82,3466
466,38; 81,658
467,7; 81,8837
469,01; 82,31
470,32; 81,8983
471,63; 82,0068
472,95; 82,2265
474,26; 81,7858
475,57; 81,8772
476,88; 82,6098
478,19; 81,9255
479,5; 81,8709
480,81; 82,3192
482,13; 81,8069
483,44; 81,7668
484,75; 82,3642
486,06; 81,7553
487,37; 81,6883
488,67; 82,2849
489,98; 81,975
491,29; 81,4058
492,6; 82,0261
493,91; 82,0883
495,22; 81,2202
496,53; 81,719
497,83; 82,1747
499,14; 81,4117
500,45; 81,419
501,76; 82,2246
503,06; 81,8613
504,37; 81,2254
505,68; 81,8534
506,98; 82,2355
508,29; 81,3378
509,6; 81,4429
510,9; 82,432
512,21; 81,8385
513,51; 81,1305
514,82; 81,9458
516,12; 82,3123
517,42; 81,314
518,73; 81,2982
520,03; 82,3133
521,34; 81,9936
522,64; 81,0753
523,94; 81,4959
525,25; 82,4401
526,55; 81,6479
527,85; 80,8358
529,15; 81,6747
530,46; 82,4434
531,76; 81,5328
533,06; 80,913
534,36; 81,8829
535,66; 82,3354
536,96; 81,2253
538,26; 80,7647
539,56; 82,0207
540,87; 82,299
542,17; 81,1732
543,47; 80,8308
544,76; 81,9745
546,06; 82,3242
547,36; 81,1989
548,66; 80,6787
549,96; 81,8453
551,26; 82,3417
552,56; 81,3383
553,86; 80,7577
555,15; 81,5838
556,45; 82,4002
557,75; 81,5757
559,05; 80,6908
560,34; 81,3369
561,64; 82,5779
562,94; 82,1134
564,23; 80,9389
565,53; 81,081
566,82; 82,3826
568,12; 82,6903
569,41; 81,5295
570,71; 80,9581
572; 81,9669
573,3; 82,9231
574,59; 82,2704
575,89; 81,1306
577,18; 81,417
578,47; 82,7709
579,77; 82,865
581,06; 81,8371
582,35; 81,1304
583,65; 81,9536
584,94; 83,1822
586,23; 82,8709
587,52; 81,5745
588,82; 81,363
590,11; 82,5083
591,4; 83,3239
592,69; 82,5932
593,98; 81,4348
595,27; 81,5498
596,56; 82,8869
597,85; 83,4776
599,14; 82,5451
600,43; 81,3527
601,72; 81,6479
603,01; 83,0393
604,3; 83,5331
605,59; 82,5154
606,88; 81,3281
608,16; 81,5548
609,45; 82,9469
610,74; 83,5129
612,03; 82,7534
613,32; 81,4979
614,6; 81,3209
615,89; 82,7142
617,18; 83,5947
618,46; 83,0131
619,75; 81,7534
621,04; 81,2576
622,32; 82,393
623,61; 83,5719
624,89; 83,4738
626,18; 82,1545
627,46; 81,2366
628,75; 81,7715
630,03; 83,1259
631,32; 83,8812
632,6; 82,9019
633,88; 81,5211
635,17; 81,2341
636,45; 82,4135
637,73; 83,567
639,02; 83,6105
640,3; 82,3784
641,58; 81,2138
642,86; 81,5002
644,15; 82,7804
645,43; 83,8234
646,71; 83,2982
647,99; 81,9638
649,27; 81,1809
650,55; 81,6415
651,83; 83,0715
653,11; 83,8618
654,39; 83,2335
655,67; 81,8156
656,95; 81,0718
658,23; 81,722
659,51; 83,1337
660,79; 83,9824
662,07; 83,2814
663,35; 81,8875
664,63; 80,9962
665,91; 81,477
667,18; 82,9025
668,46; 83,9479
669,74; 83,5905
671,02; 82,1456
672,29; 81,1387
673,57; 81,204
674,85; 82,4402
676,12; 83,694
677,4; 83,8754
678,67; 82,8102
679,95; 81,397
681,22; 80,9545
682,5; 81,8076
683,77; 83,2438
685,05; 83,8992
686,32; 83,4788
687,6; 82,0902
688,87; 81,0884
690,15; 81,1507
691,42; 82,34
692,69; 83,6357
693,97; 83,9776
695,24; 83,0742
696,51; 81,6689
697,78; 80,856
699,05; 81,2622
700,33; 82,6517
701,6; 83,7884
702,87; 84,0064
704,14; 82,96
705,41; 81,6126
706,68; 80,964
707,95; 81,2985
709,22; 82,6206
710,49; 83,8163
711,76; 84,0302
713,03; 83,0957
714,3; 81,7017
715,57; 80,8458
716,84; 81,1616
718,11; 82,3023
719,38; 83,5952
720,65; 84,0813
721,91; 83,4927
723,18; 82,0747
724,45; 80,997
725,72; 80,9368
726,98; 81,9061
728,25; 83,237
729,52; 84,058
730,78; 83,8051
732,05; 82,7575
733,32; 81,2989
734,58; 80,5972
735,85; 81,0091
737,11; 82,338
738,38; 83,6493
739,64; 84,2272
740,91; 83,5842
742,17; 82,264
743,44; 80,9925
744,7; 80,549
745,96; 81,1402
747,23; 82,4421
748,49; 83,7408
749,75; 84,1025
751,02; 83,4687
752,28; 82,184
753,54; 81,0009
754,8; 80,6075
756,06; 81,1146
757,33; 82,323
758,59; 83,5475
759,85; 84,1085
761,11; 83,6119
762,37; 82,2706
763,63; 81,0753
764,89; 80,5557
766,15; 80,8384
767,41; 81,9588
768,67; 83,1826
769,93; 84,0057
771,19; 83,8678
772,45; 82,7042
773,71; 81,4072
774,96; 80,4383
776,22; 80,4433
777,48; 81,3636
778,74; 82,6793
779,99; 83,8233
781,25; 84,1859
782,51; 83,5761
783,77; 82,3909
785,02; 80,9756
786,28; 80,2676
787,53; 80,4817
788,79; 81,432
790,05; 82,7132
791,3; 83,8744
792,56; 84,1107
793,81; 83,4372
795,07; 82,2211
796,32; 80,9845
797,58; 80,1553
798,83; 80,3535
800,08; 81,278
801,34; 82,5662
802,59; 83,7518
803,84; 84,0847
805,1; 83,499
806,35; 82,4088
807,6; 81,0798
808,85; 80,2539
810,11; 80,084
811,36; 80,7876
812,61; 82,0744
813,86; 83,303
815,11; 84,0297
816,36; 83,8974
817,61; 83,0234
818,86; 81,7432
820,11; 80,5274
821,36; 80,0061
822,61; 80,36
823,86; 81,3477
825,11; 82,5173
826,36; 83,6898
827,61; 83,9675
828,86; 83,5328
830,11; 82,6657
831,35; 81,4392
832,6; 80,3096
833,85; 79,8952
835,1; 80,343
836,34; 81,3378
837,59; 82,627
838,84; 83,6704
840,08; 84,2314
841,33; 83,6447
842,58; 82,6499
843,82; 81,5228
845,07; 80,2371
846,31; 79,7784
847,56; 79,9811
848,8; 80,8541
850,05; 82,1228
851,29; 83,2917
852,54; 84,1022
853,78; 83,9433
855,02; 83,1832
856,27; 81,985
857,51; 80,8426
858,75; 80,1674
860; 79,9328
861,24; 80,451
862,48; 81,3094
863,72; 82,5641
864,97; 83,5455
866,21; 84,1527
867,45; 83,9809
868,69; 82,896
869,93; 81,7714
871,17; 80,6763
872,41; 79,961
873,65; 79,8859
874,89; 80,2483
876,13; 81,2579
877,37; 82,4038
878,61; 83,5468
879,85; 84,0545
881,09; 84,0248
882,33; 83,2987
883,57; 82,0324
884,8; 80,9071
886,04; 80,0109
887,28; 79,7762
888,52; 80,1182
889,76; 80,9232
890,99; 82,0357
892,23; 83,0977
893,47; 83,9189
894,7; 84,2036
895,94; 83,5549
897,17; 82,7389
898,41; 81,5339
899,65; 80,4086
900,88; 79,5373
902,12; 79,466
903,35; 80,0654
904,59; 81,1182
905,82; 82,3805
907,05; 83,4478
908,29; 84,1552
909,52; 84,1959
910,75; 83,8445
911,99; 83,0281
913,22; 81,4918
914,45; 80,8057
915,69; 80,0075
916,92; 79,6967
918,15; 80,0168
919,38; 81,0036
920,61; 82,0956
921,85; 83,1632
923,08; 84,1345
924,31; 84,492
925,54; 83,9457
926,77; 83,0746
928; 82,0181
929,23; 81,0585
930,46; 80,0611
931,69; 79,7344
932,92; 79,7559
934,15; 80,2704
935,38; 81,0563
936,6; 82,2983
937,83; 83,6039
939,06; 83,8083
940,29; 84,0632
941,52; 83,9036
942,74; 82,7638
943,97; 81,8552
945,2; 80,9766
946,42; 80,2427
947,65; 80,0152
948,88; 79,9463
950,1; 80,4895
951,33; 81,0494
952,55; 82,1995
953,78; 83,1318
955,01; 83,9608
956,23; 84,2763
957,46; 84,2683
958,68; 83,6677
959,9; 82,4753
961,13; 81,1515
962,35; 80,3612
963,58; 79,873
964,8; 79,6241
966,02; 79,7896
967,24; 80,5766
968,47; 81,5409
969,69; 82,7823
970,91; 83,8122
972,13; 84,4894
973,36; 84,6305
974,58; 84,2561
975,8; 83,4248
977,02; 82,4335
978,24; 81,1569
979,46; 79,8513
980,68; 79,6277
981,9; 79,2267
983,12; 79,6102
984,34; 80,2615
985,56; 81,4899
986,78; 81,9621
988; 83,7431
989,22; 83,8818
990,44; 84,7968
991,65; 84,1938
992,87; 83,9316
994,09; 82,7193
995,31; 81,8066
996,53; 80,6415
997,74; 80,1324
998,96; 79,806
1000,18; 79,7693
1001,39; 80,001
1002,61; 80,543
1003,83; 81,1496
1005,04; 82,3186
1006,26; 83,0269
1007,47; 84,2295
1008,69; 84,2397
1009,9; 84,1704
1011,12; 83,9483
1012,33; 83,2626
1013,54; 83,1012
1014,76; 81,1899
1015,97; 80,1315
1017,19; 80,128
1018,4; 79,526
1019,61; 79,6945
1020,83; 80,1391
1022,04; 80,9521
1023,25; 81,8512
1024,46; 82,7592
1025,67; 83,6222
1026,89; 84,675
1028,1; 84,9592
1029,31; 85,1824
1030,52; 84,2638
1031,73; 84,1637
1032,94; 81,7577
1034,15; 82,1807
1035,36; 80,6931
1036,57; 81,2671
1037,78; 80,553
1038,99; 80,1508
1040,2; 79,7372
