"Wavelength (nm)"; "Transmittance (%)"
395,13; 83,0414
396,46; 83,2354
397,79; 83,379
399,11; 83,6545
400,44; 83,8287
401,76; 83,2271
403,08; 83,2331
404,41; 83,2191
405,73; 82,4962
407,06; 83,3757
408,38; 82,7716
409,7; 83,0249
411,03; 82,8329
412,35; 83,4581
413,67; 83,6196
414,99; 83,3682
416,31; 83,6201
417,64; 83,736
418,96; 83,425
420,28; 82,827
421,6; 83,2909
422,92; 83,463
424,24; 83,5682
425,56; 83,0938
426,88; 83,2128
428,2; 84,0434
429,52; 83,6118
430,84; 83,7318
432,16; 83,6392
433,48; 83,462
434,8; 83,7738
436,12; 83,3413
437,44; 83,5446
438,75; 83,4672
440,07; 82,9749
441,39; 83,8464
442,71; 83,2009
444,02; 83,6422
445,34; 83,4711
446,66; 83,573
447,98; 84,1744
449,29; 83,5015
450,61; 83,7305
451,92; 84,116
453,24; 83,667
454,55; 84,0244
455,87; 83,5557
457,18; 83,2542
458,5; 83,781
459,81; 83,3677
461,13; 83,4474
462,44; 83,4488
463,76; 83,3208
465,07; 83,386
466,38; 83,6171
467,7; 83,3536
469,01; 84,082
470,32; 84,024
471,63; 83,5079
472,95; 83,9579
474,26; 83,9979
475,57; 83,4468
476,88; 84,3219
478,19; 83,9544
479,5; 83,2176
480,81; 83,844
482,13; 83,5488
483,44; 82,9721
484,75; 83,7393
486,06; 83,4979
487,37; 83,0056
488,67; 83,5713
489,98; 83,7418
491,29; 83,1225
492,6; 83,6628
493,91; 83,7644
495,22; 83,3115
496,53; 83,6172
497,83; 84,4126
499,14; 83,5031
500,45; 83,343
501,76; 83,8827
503,06; 83,5384
504,37; 82,8912
505,68; 83,7117
506,98; 83,7539
508,29; 82,6807
509,6; 82,8976
510,9; 83,7507
512,21; 83,2013
513,51; 82,5981
514,82; 83,5384
516,12; 83,6695
517,42; 83,0002
518,73; 83,204
520,03; 84,2696
521,34; 83,7209
522,64; 83,159
523,94; 83,7722
525,25; 84,2481
526,55; 83,4707
527,85; 82,9126
529,15; 83,9369
530,46; 84,0306
531,76; 82,9342
533,06; 82,8536
534,36; 83,8536
535,66; 83,598
536,96; 82,4273
538,26; 82,9042
539,56; 84,0179
540,87; 83,4168
542,17; 82,5527
543,47; 83,0977
544,76; 84,0349
546,06; 83,4531
547,36; 82,4607
548,66; 83,175
549,96; 84,3004
551,26; 83,5777
552,56; 82,7669
553,86; 83,3293
555,15; 84,1246
556,45; 83,929
557,75; 82,8706
559,05; 82,7726
560,34; 84,0926
561,64; 84,0807
562,94; 82,8105
564,23; 82,6899
565,53; 83,7267
566,82; 84,1974
568,12; 82,7316
569,41; 82,1308
570,71; 83,1113
572; 84,2299
573,3; 83,3838
574,59; 82,2158
575,89; 82,9667
577,18; 84,2295
578,47; 84,1027
579,77; 82,8182
581,06; 82,6854
582,35; 83,8673
583,65; 84,5003
584,94; 83,872
586,23; 82,808
587,52; 83,2161
588,82; 84,3445
590,11; 84,6585
591,4; 83,6527
592,69; 82,9031
593,98; 83,4027
595,27; 84,6835
596,56; 84,6466
597,85; 83,2314
599,14; 82,3541
600,43; 83,3351
601,72; 84,558
603,01; 84,0956
604,3; 82,7244
605,59; 82,1944
606,88; 83,3481
608,16; 84,7026
609,45; 84,0585
610,74; 82,3536
612,03; 82,2162
613,32; 83,4711
614,6; 84,4572
615,89; 83,8794
617,18; 82,7292
618,46; 82,5169
619,75; 83,5695
621,04; 84,5576
622,32; 84,4789
623,61; 83,0814
624,89; 82,4504
626,18; 83,1122
627,46; 84,4248
628,75; 84,7521
630,03; 84,1143
631,32; 82,8654
632,6; 82,7114
633,88; 83,9399
635,17; 84,8096
636,45; 84,3445
637,73; 82,9724
639,02; 82,137
640,3; 82,6306
641,58; 84,2717
642,86; 84,7903
644,15; 83,5423
645,43; 82,1283
646,71; 81,7856
647,99; 83,1295
649,27; 84,6053
650,55; 84,4313
651,83; 83,1193
653,11; 81,8867
654,39; 82,2198
655,67; 83,6045
656,95; 84,5045
658,23; 84,3288
659,51; 83,0155
660,79; 82,0886
662,07; 82,7294
663,35; 84,1615
664,63; 84,8459
665,91; 84,351
667,18; 83,1738
668,46; 82,4727
669,74; 82,668
671,02; 83,7642
672,29; 84,8394
673,57; 84,7657
674,85; 83,8784
676,12; 82,5919
677,4; 82,3772
678,67; 83,1945
679,95; 84,2743
681,22; 84,6419
682,5; 83,806
683,77; 82,5363
685,05; 81,5311
686,32; 82,1369
687,6; 83,565
688,87; 84,5146
690,15; 84,1744
691,42; 82,8472
692,69; 81,5097
693,97; 81,6414
695,24; 82,9093
696,51; 84,1576
697,78; 84,694
699,05; 83,5853
700,33; 82,3535
701,6; 81,6045
702,87; 81,9735
704,14; 83,4997
705,41; 84,5879
706,68; 84,6865
707,95; 83,5095
709,22; 82,5685
710,49; 81,8834
711,76; 82,6571
713,03; 84,1223
714,3; 84,9188
715,57; 84,8779
716,84; 83,5794
718,11; 82,5597
719,38; 82,2476
720,65; 82,3794
721,91; 83,4583
723,18; 84,3708
724,45; 85,0783
725,72; 84,5688
726,98; 82,9818
728,25; 82,2373
729,52; 81,9494
730,78; 82,707
732,05; 83,9618
733,32; 84,9332
734,58; 84,6492
735,85; 83,4804
737,11; 82,0856
738,38; 81,0679
739,64; 81,5158
740,91; 82,7997
742,17; 84,3809
743,44; 84,7753
744,7; 83,9538
745,96; 82,3022
747,23; 81,1924
748,49; 80,8767
749,75; 81,9131
751,02; 83,5096
752,28; 84,4208
753,54; 84,4179
754,8; 83,3238
756,06; 82,1402
757,33; 81,4419
758,59; 81,2175
759,85; 82,5879
761,11; 83,9524
762,37; 85,007
763,63; 84,8962
764,89; 83,662
766,15; 82,5494
767,41; 81,4234
768,67; 81,3135
769,93; 82,2328
771,19; 83,4503
772,45; 84,3009
773,71; 84,6162
774,96; 84,3095
776,22; 83,2434
777,48; 81,8963
778,74; 81,5867
779,99; 81,7566
781,25; 82,9784
782,51; 84,1846
783,77; 84,7535
785,02; 84,7554
786,28; 83,7375
787,53; 82,6162
788,79; 81,7831
790,05; 81,1526
791,3; 81,8106
792,56; 83,18
793,81; 84,1848
795,07; 84,7137
796,32; 84,2377
797,58; 83,4359
798,83; 82,0415
800,08; 80,8088
801,34; 80,7847
802,59; 81,4778
803,84; 82,5314
805,1; 83,6447
806,35; 84,5043
807,6; 84,169
808,85; 82,9524
810,11; 81,3814
811,36; 80,7737
812,61; 80,4442
813,86; 81,1818
815,11; 82,1127
816,36; 83,7201
817,61; 84,5486
818,86; 84,5544
820,11; 83,7847
821,36; 82,559
822,61; 81,6795
823,86; 80,7054
825,11; 80,8355
826,36; 81,4772
827,61; 82,97
828,86; 84,2216
830,11; 84,635
831,35; 84,193
832,6; 83,221
833,85; 81,895
835,1; 80,8552
836,34; 80,8169
837,59; 81,4578
838,84; 82,6369
840,08; 83,6901
841,33; 84,8524
842,58; 85,0104
843,82; 84,7395
845,07; 83,6914
846,31; 82,447
847,56; 81,3747
848,8; 80,9169
850,05; 81,2296
851,29; 82,0329
852,54; 83,1848
853,78; 83,7673
855,02; 84,3736
856,27; 84,3386
857,51; 83,6722
858,75; 82,8238
860; 81,4344
861,24; 80,3194
862,48; 80,4138
863,72; 81,1443
864,97; 82,2082
866,21; 82,792
867,45; 83,7234
868,69; 84,241
869,93; 83,8301
871,17; 83,2652
872,41; 81,8732
873,65; 80,7952
874,89; 80,1071
876,13; 80,1759
877,37; 80,9916
878,61; 81,9375
879,85; 83,4
881,09; 83,9896
882,33; 84,163
883,57; 83,976
884,8; 82,7147
886,04; 81,3715
887,28; 80,6399
888,52; 80,2007
889,76; 80,1205
890,99; 80,5651
892,23; 81,6654
893,47; 83,0754
894,7; 84,2436
895,94; 85,0641
897,17; 84,7563
898,41; 83,2141
899,65; 82,0543
900,88; 80,7592
902,12; 80,4277
903,35; 80,4984
904,59; 80,6894
905,82; 81,6214
907,05; 82,3796
908,29; 83,5114
909,52; 84,4693
910,75; 84,4632
911,99; 84,4674
913,22; 83,3129
914,45; 82,5273
915,69; 81,4247
916,92; 81,1367
918,15; 80,8428
919,38; 80,467
920,61; 81,3117
921,85; 82,8468
923,08; 84,1164
924,31; 85,127
925,54; 85,203
926,77; 84,6644
928; 84,0428
929,23; 83,0044
930,46; 81,3506
931,69; 80,8625
932,92; 80,5293
934,15; 80,5696
935,38; 80,8876
936,6; 81,9045
937,83; 83,2079
939,06; 84,2528
940,29; 84,8278
941,52; 84,4012
942,74; 84,6897
943,97; 83,9986
945,2; 82,605
946,42; 81,799
947,65; 80,5138
948,88; 80,0993
950,1; 80,2966
951,33; 80,4632
952,55; 81,2336
953,78; 82,7122
955,01; 83,382
956,23; 84,512
957,46; 84,6474
958,68; 84,1245
959,9; 83,589
961,13; 82,1208
962,35; 81,4746
963,58; 80,4332
964,8; 79,6661
966,02; 79,2379
967,24; 79,9273
968,47; 81,0506
969,69; 82,4536
970,91; 83,139
972,13; 83,7488
973,36; 84,5998
974,58; 84,3446
975,8; 83,6111
977,02; 82,9192
978,24; 81,9583
979,46; 80,7848
980,68; 79,6176
981,9; 79,6501
983,12; 80,1585
984,34; 80,2908
985,56; 81,2023
986,78; 82,0113
988; 83,5633
989,22; 83,8374
990,44; 84,9802
991,65; 84,4732
992,87; 84,5614
994,09; 83,7967
995,31; 82,2847
996,53; 80,9865
997,74; 79,9656
998,96; 79,5861
1000,18; 79,6517
1001,39; 80,1169
1002,61; 81,0098
1003,83; 81,3545
1005,04; 82,394
1006,26; 83,21
1007,47; 84,1931
1008,69; 84,26
1009,9; 83,8639
1011,12; 83,2623
1012,33; 82,7914
1013,54; 81,6291
1014,76; 80,898
1015,97; 79,5693
1017,19; 80,2176
1018,4; 79,4703
1019,61; 79,1878
1020,83; 80,2781
1022,04; 81,5016
1023,25; 82,9621
1024,46; 84,7544
1025,67; 85,7278
1026,89; 84,337
1028,1; 85,1531
1029,31; 85,0326
1030,52; 83,0857
1031,73; 82,7005
1032,94; 82,6397
1034,15; 79,8993
1035,36; 79,7149
1036,57; 80,9101
1037,78; 78,4883
1038,99; 79,7876
1040,2; 80,9009
