"Wavelength (nm)"; "Transmittance (%)"
395,13; 82,7133
396,46; 82,6973
397,79; 83,3231
399,11; 83,1936
400,44; 83,6173
401,76; 81,2896
403,08; 82,147
404,41; 82,2681
405,73; 82,7299
407,06; 82,6357
408,38; 82,6209
409,7; 82,9752
411,03; 82,6208
412,35; 82,653
413,67; 82,0233
414,99; 83,2544
416,31; 82,3003
417,64; 82,84
418,96; 83,2638
420,28; 82,4456
421,6; 83,3152
422,92; 83,086
424,24; 83,1805
425,56; 82,7594
426,88; 82,9695
428,2; 82,7088
429,52; 82,8092
430,84; 83,2322
432,16; 82,9599
433,48; 82,9208
434,8; 83,4737
436,12; 83,0348
437,44; 83,2702
438,75; 82,9094
440,07; 83,4296
441,39; 83,3631
442,71; 83,1281
444,02; 83,2895
445,34; 82,916
446,66; 83,2651
447,98; 83,4022
449,29; 83,1709
450,61; 83,5257
451,92; 83,1403
453,24; 83,136
454,55; 83,5473
455,87; 82,7923
457,18; 83,3092
458,5; 83,2922
459,81; 83,0461
461,13; 83,6653
462,44; 83,405
463,76; 83,1529
465,07; 83,6634
466,38; 83,2537
467,7; 83,1842
469,01; 83,8847
470,32; 82,9619
471,63; 82,9296
472,95; 83,4742
474,26; 82,7853
475,57; 83,052
476,88; 83,6911
478,19; 83,0128
479,5; 83,3557
480,81; 83,8813
482,13; 83,137
483,44; 83,2444
484,75; 83,6892
486,06; 83,1083
487,37; 82,9438
488,67; 83,6711
489,98; 82,9154
491,29; 82,499
492,6; 83,5342
493,91; 82,9915
495,22; 82,5598
496,53; 83,7066
497,83; 83,437
499,14; 82,6311
500,45; 83,3856
501,76; 83,8505
503,06; 82,8617
504,37; 82,9032
505,68; 83,627
506,98; 83,014
508,29; 82,2518
509,6; 83,376
510,9; 83,3197
512,21; 82,3336
513,51; 82,8119
514,82; 83,7154
516,12; 82,8282
517,42; 82,6577
518,73; 83,638
520,03; 83,8898
521,34; 82,7756
522,64; 83,0646
523,94; 83,8951
525,25; 83,5676
526,55; 82,2778
527,85; 82,8906
529,15; 83,6288
530,46; 82,8164
531,76; 82,1038
533,06; 83,1237
534,36; 83,5797
535,66; 82,4958
536,96; 82,322
538,26; 83,7507
539,56; 83,7553
540,87; 82,6692
542,17; 82,9027
543,47; 83,9028
544,76; 83,9422
546,06; 82,6475
547,36; 82,3391
548,66; 83,4224
549,96; 83,6571
551,26; 82,2804
552,56; 81,9231
553,86; 83,2802
555,15; 83,6185
556,45; 82,3151
557,75; 81,8826
559,05; 83,2621
560,34; 83,967
561,64; 82,7024
562,94; 82,1629
564,23; 83,5272
565,53; 84,3111
566,82; 83,5701
568,12; 82,3936
569,41; 82,9509
570,71; 84,1121
572; 83,9662
573,3; 82,6893
574,59; 82,29
575,89; 83,4111
577,18; 83,977
578,47; 83,1856
579,77; 81,9038
581,06; 82,7486
582,35; 84,0895
583,65; 84,0602
584,94; 82,6007
586,23; 82,4243
587,52; 83,8215
588,82; 84,6925
590,11; 83,6908
591,4; 82,6387
592,69; 82,8526
593,98; 84,1588
595,27; 84,5209
596,56; 83,5261
597,85; 82,4221
599,14; 82,8971
600,43; 84,2502
601,72; 84,3569
603,01; 82,9771
604,3; 82,0204
605,59; 82,7872
606,88; 84,4196
608,16; 84,3643
609,45; 82,792
610,74; 82,0227
612,03; 83,0218
613,32; 84,4429
614,6; 84,4579
615,89; 83,1702
617,18; 82,4502
618,46; 83,0948
619,75; 84,4976
621,04; 84,6751
622,32; 83,4782
623,61; 82,403
624,89; 82,4586
626,18; 83,871
627,46; 84,6836
628,75; 84,0936
630,03; 82,5712
631,32; 81,779
632,6; 82,8316
633,88; 84,357
635,17; 84,2531
636,45; 83,0078
637,73; 81,8859
639,02; 82,2172
640,3; 83,9413
641,58; 84,6236
642,86; 83,8279
644,15; 82,4087
645,43; 82,1234
646,71; 83,2015
647,99; 84,4864
649,27; 84,9703
650,55; 83,8073
651,83; 82,3892
653,11; 82,2303
654,39; 83,3823
655,67; 84,7492
656,95; 84,601
658,23; 83,3397
659,51; 82,0819
660,79; 82,1414
662,07; 83,3615
663,35; 84,5041
664,63; 84,3424
665,91; 83,1277
667,18; 81,7345
668,46; 81,6497
669,74; 82,9265
671,02; 84,283
672,29; 84,5237
673,57; 83,5244
674,85; 82,3394
676,12; 81,8618
677,4; 82,7828
678,67; 84,2869
679,95; 84,9899
681,22; 83,982
682,5; 82,6925
683,77; 81,7673
685,05; 82,4522
686,32; 83,7226
687,6; 84,9893
688,87; 84,5356
690,15; 83,2503
691,42; 81,8662
692,69; 81,6729
693,97; 82,7408
695,24; 83,9553
696,51; 84,648
697,78; 83,801
699,05; 82,1658
700,33; 81,3237
701,6; 81,8068
702,87; 82,9981
704,14; 84,0543
705,41; 84,3995
706,68; 83,6139
707,95; 82,307
709,22; 81,5125
710,49; 81,8585
711,76; 82,9759
713,03; 84,1532
714,3; 84,638
715,57; 83,5914
716,84; 82,1884
718,11; 81,3726
719,38; 81,8296
720,65; 82,8881
721,91; 84,3683
723,18; 84,8188
724,45; 84,0796
725,72; 82,6825
726,98; 81,38
728,25; 81,2815
729,52; 82,3492
730,78; 83,6311
732,05; 84,7341
733,32; 84,4979
734,58; 83,1287
735,85; 81,7361
737,11; 80,9027
738,38; 81,6467
739,64; 82,9414
740,91; 84,1677
742,17; 84,5071
743,44; 83,7918
744,7; 82,6111
745,96; 81,6822
747,23; 81,0832
748,49; 82,034
749,75; 83,2015
751,02; 84,6353
752,28; 84,8173
753,54; 83,8393
754,8; 82,4681
756,06; 81,3253
757,33; 81,0344
758,59; 81,8863
759,85; 83,4542
761,11; 84,5115
762,37; 84,844
763,63; 83,8796
764,89; 82,5094
766,15; 81,2328
767,41; 80,7537
768,67; 81,4096
769,93; 82,7984
771,19; 84,3239
772,45; 84,4743
773,71; 83,8722
774,96; 82,4376
776,22; 81,1758
777,48; 80,4876
778,74; 80,8268
779,99; 82,2147
781,25; 83,5789
782,51; 84,3926
783,77; 84,1683
785,02; 82,9066
786,28; 81,9553
787,53; 80,9249
788,79; 80,9102
790,05; 81,8404
791,3; 82,6526
792,56; 83,5452
793,81; 84,0494
795,07; 83,7918
796,32; 83,268
797,58; 82,1508
798,83; 81,5078
800,08; 81,1128
801,34; 81,5973
802,59; 82,6171
803,84; 83,5997
805,1; 84,4518
806,35; 84,5283
807,6; 83,4388
808,85; 82,0773
810,11; 80,9212
811,36; 80,4669
812,61; 80,8565
813,86; 81,9533
815,11; 83,2614
816,36; 84,4059
817,61; 84,5663
818,86; 83,4616
820,11; 82,0229
821,36; 80,467
822,61; 79,9093
823,86; 80,2306
825,11; 81,0309
826,36; 82,7419
827,61; 83,764
828,86; 84,1374
830,11; 83,7087
831,35; 82,6297
832,6; 81,4518
833,85; 80,493
835,1; 80,2786
836,34; 80,5744
837,59; 81,7201
838,84; 82,9772
840,08; 83,91
841,33; 83,8567
842,58; 83,6149
843,82; 82,6348
845,07; 81,944
846,31; 80,9909
847,56; 80,557
848,8; 81,2083
850,05; 81,9493
851,29; 82,9487
852,54; 83,9034
853,78; 84,4355
855,02; 84,1063
856,27; 83,6417
857,51; 82,4931
858,75; 81,2043
860; 80,1367
861,24; 80,1492
862,48; 80,8436
863,72; 81,9783
864,97; 83,3561
866,21; 84,3966
867,45; 84,4707
868,69; 83,6359
869,93; 82,6355
871,17; 81,5242
872,41; 80,3546
873,65; 79,6473
874,89; 79,2737
876,13; 80,2194
877,37; 81,7683
878,61; 83,1815
879,85; 83,9913
881,09; 84,1964
882,33; 83,4769
883,57; 82,2647
884,8; 80,9257
886,04; 79,9372
887,28; 79,5874
888,52; 79,8946
889,76; 80,4105
890,99; 81,6314
892,23; 82,9755
893,47; 83,5825
894,7; 83,7971
895,94; 83,7328
897,17; 82,6237
898,41; 81,6044
899,65; 80,7678
900,88; 80,3569
902,12; 80,1312
903,35; 80,6047
904,59; 81,6641
905,82; 82,8185
907,05; 83,6577
908,29; 84,5331
909,52; 84,5422
910,75; 84,177
911,99; 83,4503
913,22; 82,2382
914,45; 81,0306
915,69; 80,3718
916,92; 80,2704
918,15; 81,2731
919,38; 81,4785
920,61; 82,4236
921,85; 83,495
923,08; 84,208
924,31; 84,7792
925,54; 84,0603
926,77; 83,6236
928; 82,4845
929,23; 81,0874
930,46; 80,1414
931,69; 79,6195
932,92; 79,542
934,15; 79,7766
935,38; 80,9843
936,6; 82,4535
937,83; 83,7453
939,06; 84,1764
940,29; 84,0106
941,52; 83,2323
942,74; 81,8308
943,97; 80,4936
945,2; 79,3923
946,42; 78,6229
947,65; 79,1481
948,88; 79,7671
950,1; 80,0038
951,33; 81,0347
952,55; 82,5237
953,78; 84,0889
955,01; 84,594
956,23; 84,5121
957,46; 83,6859
958,68; 81,9469
959,9; 80,6224
961,13; 80,1065
962,35; 79,5659
963,58; 79,5389
964,8; 80,0497
966,02; 80,7235
967,24; 81,5884
968,47; 82,267
969,69; 83,7392
970,91; 84,1228
972,13; 84,2195
973,36; 84,147
974,58; 83,5619
975,8; 82,3776
977,02; 81,5861
978,24; 80,8612
979,46; 80,1285
980,68; 80,3239
981,9; 79,8269
983,12; 80,6686
984,34; 81,2429
985,56; 83,042
986,78; 83,3134
988; 84,2738
989,22; 84,8918
990,44; 84,4718
991,65; 83,8521
992,87; 83,4517
994,09; 82,5077
995,31; 80,9063
996,53; 80,6393
997,74; 79,6097
998,96; 79,7755
1000,18; 80,6143
1001,39; 80,3814
1002,61; 80,658
1003,83; 81,4264
1005,04; 82,661
1006,26; 83,72
1007,47; 84,0329
1008,69; 83,8165
1009,9; 83,5736
1011,12; 82,3205
1012,33; 81,424
1013,54; 80,3088
1014,76; 79,3407
1015,97; 79,1177
1017,19; 78,4284
1018,4; 78,344
1019,61; 79,7738
1020,83; 81,035
1022,04; 80,8853
1023,25; 82,8696
1024,46; 83,9698
1025,67; 84,6797
1026,89; 83,1762
1028,1; 83,1064
1029,31; 83,0243
1030,52; 81,2111
1031,73; 81,0873
1032,94; 80,424
1034,15; 79,8024
1035,36; 80,8626
1036,57; 79,6877
1037,78; 78,5067
1038,99; 79,6171
1040,2; 81,1773
