"Wavelength (nm)"; "Transmittance (%)"
395,13; 81,8776
396,46; 82,1519
397,79; 81,2344
399,11; 82,6342
400,44; 81,6701
401,76; 82,5914
403,08; 82,68
404,41; 82,0356
405,73; 81,8578
407,06; 82,5622
408,38; 82,1674
409,7; 81,8542
411,03; 82,6025
412,35; 82,0562
413,67; 82,7997
414,99; 81,6516
416,31; 82,3806
417,64; 82,0585
418,96; 82,4052
420,28; 82,0005
421,6; 82,3652
422,92; 82,8029
424,24; 82,4916
425,56; 82,9462
426,88; 82,2
428,2; 82,2259
429,52; 82,3291
430,84; 82,1952
432,16; 82,9299
433,48; 82,455
434,8; 82,9667
436,12; 82,2959
437,44; 82,5926
438,75; 82,2931
440,07; 82,1652
441,39; 82,3914
442,71; 82,4997
444,02; 82,6898
445,34; 82,8045
446,66; 82,521
447,98; 83,0466
449,29; 82,6848
450,61; 82,3335
451,92; 82,7474
453,24; 82,5748
454,55; 82,4663
455,87; 82,817
457,18; 82,7593
458,5; 83,0082
459,81; 83,163
461,13; 82,6637
462,44; 83,1109
463,76; 82,7655
465,07; 82,5032
466,38; 82,688
467,7; 82,9513
469,01; 82,7041
470,32; 83,082
471,63; 83,0267
472,95; 82,6012
474,26; 83,1852
475,57; 82,6782
476,88; 82,5326
478,19; 83,2348
479,5; 82,885
480,81; 82,3706
482,13; 83,2547
483,44; 83,2078
484,75; 82,7742
486,06; 83,1026
487,37; 83,4614
488,67; 82,5984
489,98; 82,6791
491,29; 82,8893
492,6; 82,4222
493,91; 82,5274
495,22; 83,2618
496,53; 82,7981
497,83; 82,4721
499,14; 83,244
500,45; 83,2223
501,76; 82,3786
503,06; 82,9634
504,37; 83,1451
505,68; 82,3464
506,98; 82,3743
508,29; 83,0554
509,6; 82,7823
510,9; 82,3651
512,21; 83,0477
513,51; 83,5638
514,82; 82,5759
516,12; 82,5251
517,42; 83,5456
518,73; 82,9846
520,03; 81,9906
521,34; 82,5844
522,64; 83,1409
523,94; 82,3267
525,25; 82,3062
526,55; 83,0775
527,85; 83,4896
529,15; 82,5854
530,46; 82,4781
531,76; 83,5012
533,06; 83,3703
534,36; 82,3328
535,66; 82,3638
536,96; 83,388
538,26; 82,8703
539,56; 81,8949
540,87; 82,5513
542,17; 83,3346
543,47; 83,0128
544,76; 82,3149
546,06; 82,5811
547,36; 83,6616
548,66; 83,4223
549,96; 82,1349
551,26; 82,3579
552,56; 83,4652
553,86; 83,212
555,15; 81,9499
556,45; 82,0789
557,75; 83,0779
559,05; 83,2633
560,34; 82,3363
561,64; 82,1703
562,94; 83,196
564,23; 83,9966
565,53; 83,1683
566,82; 82,2359
568,12; 82,8359
569,41; 83,9615
570,71; 83,543
572; 82,1899
573,3; 82,2082
574,59; 83,4776
575,89; 83,6915
577,18; 82,7041
578,47; 82,226
579,77; 82,9476
581,06; 83,9467
582,35; 83,8607
583,65; 82,7645
584,94; 82,4917
586,23; 83,5693
587,52; 84,3181
588,82; 83,5716
590,11; 82,2988
591,4; 82,4942
592,69; 83,7712
593,98; 84,1578
595,27; 83,0482
596,56; 82,1899
597,85; 82,7184
599,14; 83,8687
600,43; 84,0745
601,72; 83,2101
603,01; 82,4749
604,3; 82,9639
605,59; 84,2277
606,88; 84,4088
608,16; 83,324
609,45; 82,3706
610,74; 82,8285
612,03; 84,1241
613,32; 84,4382
614,6; 83,1777
615,89; 82,0638
617,18; 82,4027
618,46; 83,7542
619,75; 84,2414
621,04; 83,5591
622,32; 82,5287
623,61; 82,4538
624,89; 83,536
626,18; 84,4166
627,46; 84,2623
628,75; 83,1254
630,03; 82,301
631,32; 82,811
632,6; 84,1486
633,88; 84,3993
635,17; 83,4137
636,45; 82,0546
637,73; 82,0479
639,02; 83,2941
640,3; 84,2206
641,58; 83,9695
642,86; 82,7928
644,15; 82,0235
645,43; 82,6663
646,71; 83,8432
647,99; 84,5025
649,27; 84,0746
650,55; 82,889
651,83; 82,1952
653,11; 82,7612
654,39; 83,9797
655,67; 84,7624
656,95; 84,1054
658,23; 82,5824
659,51; 81,8264
660,79; 82,4326
662,07; 83,777
663,35; 84,6555
664,63; 83,909
665,91; 82,454
667,18; 81,8048
668,46; 82,4504
669,74; 83,8915
671,02; 84,6536
672,29; 84,204
673,57; 83,0671
674,85; 82,3076
676,12; 82,4376
677,4; 83,4555
678,67; 84,5343
679,95; 84,6741
681,22; 83,8781
682,5; 82,4459
683,77; 81,7411
685,05; 82,4688
686,32; 83,9425
687,6; 84,7345
688,87; 84,1801
690,15; 82,7428
691,42; 81,5556
692,69; 81,8644
693,97; 82,999
695,24; 84,3221
696,51; 84,6145
697,78; 83,6918
699,05; 82,5457
700,33; 82,0565
701,6; 82,4886
702,87; 83,6284
704,14; 84,676
705,41; 84,8191
706,68; 84,0638
707,95; 82,7962
709,22; 82,1021
710,49; 82,2393
711,76; 83,29
713,03; 84,4238
714,3; 84,8168
715,57; 83,8753
716,84; 82,4958
718,11; 81,5349
719,38; 81,6858
720,65; 82,8686
721,91; 84,1594
723,18; 84,7304
724,45; 84,0826
725,72; 82,7854
726,98; 81,7986
728,25; 81,8413
729,52; 82,7953
730,78; 83,9291
732,05; 84,7003
733,32; 84,6892
734,58; 83,8637
735,85; 82,7098
737,11; 81,9787
738,38; 82,2028
739,64; 83,1509
740,91; 84,2615
742,17; 84,8333
743,44; 84,5611
744,7; 83,463
745,96; 82,1255
747,23; 81,429
748,49; 81,6729
749,75; 82,7898
751,02; 84,1605
752,28; 84,8683
753,54; 84,1601
754,8; 82,8355
756,06; 81,534
757,33; 81,0387
758,59; 81,6042
759,85; 83,014
761,11; 84,2817
762,37; 84,6909
763,63; 84,308
764,89; 83,3191
766,15; 82,3932
767,41; 81,9757
768,67; 82,1023
769,93; 82,904
771,19; 83,8957
772,45; 84,6676
773,71; 84,7808
774,96; 84,3366
776,22; 83,1266
777,48; 81,7564
778,74; 81,264
779,99; 81,5279
781,25; 82,8573
782,51; 84,0614
783,77; 84,7141
785,02; 84,4839
786,28; 83,3375
787,53; 81,8616
788,79; 81,0032
790,05; 80,8153
791,3; 81,5642
792,56; 83,1222
793,81; 84,3097
795,07; 84,645
796,32; 84,159
797,58; 83,1038
798,83; 81,8583
800,08; 81,3815
801,34; 81,6496
802,59; 82,4394
803,84; 83,4342
805,1; 84,5105
806,35; 84,7197
807,6; 84,7076
808,85; 84,0742
810,11; 83,0242
811,36; 82,0633
812,61; 81,497
813,86; 81,5786
815,11; 82,4616
816,36; 83,5065
817,61; 84,5807
818,86; 84,9189
820,11; 84,2946
821,36; 83,0449
822,61; 81,5167
823,86; 80,5855
825,11; 80,3955
826,36; 81,076
827,61; 82,3055
828,86; 83,766
830,11; 84,5518
831,35; 84,4019
832,6; 83,3659
833,85; 82,0495
835,1; 81,2157
836,34; 80,7801
837,59; 81,1017
838,84; 82,0848
840,08; 83,2181
841,33; 84,0743
842,58; 84,5246
843,82; 84,522
845,07; 84,0488
846,31; 83,2806
847,56; 82,4463
848,8; 81,7864
850,05; 81,5091
851,29; 81,9645
852,54; 82,6066
853,78; 83,4957
855,02; 84,3167
856,27; 84,8422
857,51; 84,9042
858,75; 83,9289
860; 82,6778
861,24; 80,9888
862,48; 80,2071
863,72; 80,1171
864,97; 80,8169
866,21; 82,1178
867,45; 83,3888
868,69; 84,3049
869,93; 84,3896
871,17; 83,8786
872,41; 82,6666
873,65; 81,1418
874,89; 80,1944
876,13; 79,6615
877,37; 80,3048
878,61; 81,5204
879,85; 82,948
881,09; 84,1404
882,33; 84,7769
883,57; 84,7333
884,8; 84,0883
886,04; 83,1009
887,28; 82,4235
888,52; 81,7074
889,76; 81,389
890,99; 81,4506
892,23; 82,0278
893,47; 82,675
894,7; 83,4044
895,94; 84,3332
897,17; 84,9683
898,41; 84,7669
899,65; 84,6124
900,88; 83,8122
902,12; 82,8257
903,35; 81,7804
904,59; 80,6173
905,82; 80,3985
907,05; 80,7006
908,29; 81,6895
909,52; 82,7373
910,75; 83,7489
911,99; 84,5684
913,22; 85,0669
914,45; 83,9288
915,69; 82,4971
916,92; 81,0036
918,15; 79,8706
919,38; 79,1839
920,61; 79,5336
921,85; 80,1616
923,08; 81,3842
924,31; 83,0822
925,54; 83,9145
926,77; 84,587
928; 84,7164
929,23; 83,8815
930,46; 82,9688
931,69; 81,7032
932,92; 81,0954
934,15; 80,6865
935,38; 80,8651
936,6; 81,5179
937,83; 82,3637
939,06; 83,0788
940,29; 83,7867
941,52; 84,1939
942,74; 84,8372
943,97; 84,9573
945,2; 84,456
946,42; 84,2149
947,65; 83,5434
948,88; 82,7194
950,1; 81,7389
951,33; 80,9781
952,55; 80,4043
953,78; 81,0145
955,01; 81,46
956,23; 82,4503
957,46; 83,4095
958,68; 84,393
959,9; 84,5213
961,13; 84,7467
962,35; 83,8607
963,58; 82,7052
964,8; 81,461
966,02; 79,8136
967,24; 79,0121
968,47; 78,6767
969,69; 79,2111
970,91; 80,2344
972,13; 81,6737
973,36; 82,808
974,58; 84,1371
975,8; 84,7676
977,02; 84,4941
978,24; 83,816
979,46; 82,7253
980,68; 81,6243
981,9; 80,5073
983,12; 80,2185
984,34; 79,752
985,56; 80,182
986,78; 80,8717
988; 82,1239
989,22; 82,9692
990,44; 83,7245
991,65; 84,2675
992,87; 84,3927
994,09; 84,735
995,31; 84,8221
996,53; 84,042
997,74; 83,6144
998,96; 83,0224
1000,18; 82,9001
1001,39; 82,032
1002,61; 82,0099
1003,83; 81,6012
1005,04; 81,7123
1006,26; 81,4737
1007,47; 82,1982
1008,69; 82,4708
1009,9; 83,3568
1011,12; 84,4293
1012,33; 85,8103
1013,54; 85,1684
1014,76; 84,7178
1015,97; 84,2639
1017,19; 83,2797
1018,4; 81,4828
1019,61; 80,8953
1020,83; 79,4662
1022,04; 78,9576
1023,25; 78,7243
1024,46; 78,7056
1025,67; 80,183
1026,89; 81,8965
1028,1; 82,5507
1029,31; 84,1524
1030,52; 84,6676
1031,73; 84,9528
1032,94; 84,8918
1034,15; 83,2909
1035,36; 81,4919
1036,57; 82,3974
1037,78; 79,4914
1038,99; 79,2623
1040,2; 77,3915
