"Wavelength (nm)"; "Transmittance (%)"
395,13; 83,0136
396,46; 82,5033
397,79; 82,9173
399,11; 83,0066
400,44; 83,0276
401,76; 83,5715
403,08; 83,558
404,41; 83,2012
405,73; 82,7838
407,06; 83,6494
408,38; 82,3478
409,7; 83,0108
411,03; 82,3341
412,35; 83,3302
413,67; 82,8443
414,99; 83,5651
416,31; 82,6117
417,64; 82,96
418,96; 82,5906
420,28; 82,7291
421,6; 83,6212
422,92; 82,6352
424,24; 83,2419
425,56; 82,7786
426,88; 82,982
428,2; 83,7466
429,52; 83,182
430,84; 83,0362
432,16; 82,9584
433,48; 83,389
434,8; 83,3155
436,12; 83,0799
437,44; 83,475
438,75; 82,9046
440,07; 83,3317
441,39; 83,1225
442,71; 83,1943
444,02; 83,7516
445,34; 83,0088
446,66; 83,5668
447,98; 83,7283
449,29; 82,9038
450,61; 83,4614
451,92; 83,0754
453,24; 83,3066
454,55; 83,423
455,87; 82,9197
457,18; 83,4389
458,5; 83,589
459,81; 83,1796
461,13; 84,0256
462,44; 83,4879
463,76; 83,2299
465,07; 83,5078
466,38; 83,3236
467,7; 83,3087
469,01; 83,9588
470,32; 83,2083
471,63; 83,315
472,95; 84,0278
474,26; 83,0898
475,57; 83,4783
476,88; 84,0073
478,19; 83,4445
479,5; 83,6743
480,81; 83,8404
482,13; 83,1705
483,44; 83,6401
484,75; 83,9743
486,06; 83,1162
487,37; 83,2033
488,67; 83,9889
489,98; 83,271
491,29; 83,1466
492,6; 83,9776
493,91; 83,1886
495,22; 82,9264
496,53; 84,1642
497,83; 83,7774
499,14; 82,7417
500,45; 83,6638
501,76; 83,8803
503,06; 82,9924
504,37; 83,2278
505,68; 84,0809
506,98; 83,1898
508,29; 83,0696
509,6; 83,9839
510,9; 83,5996
512,21; 82,7981
513,51; 83,3083
514,82; 84,0786
516,12; 83,1365
517,42; 82,7792
518,73; 83,8146
520,03; 83,9432
521,34; 83,0456
522,64; 83,3939
523,94; 84,0814
525,25; 83,602
526,55; 82,6102
527,85; 83,6843
529,15; 84,3318
530,46; 83,1749
531,76; 82,6897
533,06; 83,6837
534,36; 84,1864
535,66; 83,0055
536,96; 82,8744
538,26; 83,9539
539,56; 84,1232
540,87; 82,8069
542,17; 82,996
543,47; 84,2779
544,76; 84,0207
546,06; 82,863
547,36; 82,7002
548,66; 84,1185
549,96; 84,2363
551,26; 82,7062
552,56; 82,7408
553,86; 84,1428
555,15; 83,9513
556,45; 82,813
557,75; 82,7104
559,05; 83,7949
560,34; 84,3961
561,64; 82,9739
562,94; 82,4337
564,23; 83,6785
565,53; 84,5793
566,82; 83,5508
568,12; 82,5162
569,41; 83,1866
570,71; 84,3169
572; 83,9218
573,3; 82,8073
574,59; 82,7973
575,89; 84,5005
577,18; 84,6919
578,47; 83,4103
579,77; 82,4161
581,06; 83,4493
582,35; 84,7666
583,65; 84,4422
584,94; 83,1663
586,23; 82,8407
587,52; 84,0448
588,82; 84,8435
590,11; 83,827
591,4; 82,7865
592,69; 83,4598
593,98; 84,7713
595,27; 84,9452
596,56; 83,4104
597,85; 82,4035
599,14; 83,3271
600,43; 84,8626
601,72; 84,9588
603,01; 83,4163
604,3; 82,6197
605,59; 83,4598
606,88; 84,73
608,16; 84,6437
609,45; 83,2746
610,74; 82,7099
612,03; 83,6107
613,32; 84,7978
614,6; 84,456
615,89; 82,9569
617,18; 82,1759
618,46; 83,2519
619,75; 84,904
621,04; 84,9705
622,32; 83,7437
623,61; 82,1302
624,89; 82,472
626,18; 84,0392
627,46; 85,0089
628,75; 84,0878
630,03; 83,1185
631,32; 82,8642
632,6; 83,9395
633,88; 85,1119
635,17; 84,6496
636,45; 83,0435
637,73; 82,1823
639,02; 83,0705
640,3; 84,6607
641,58; 85,471
642,86; 84,409
644,15; 82,6953
645,43; 82,3046
646,71; 83,2949
647,99; 84,8677
649,27; 85,1316
650,55; 84,0354
651,83; 82,8337
653,11; 82,8225
654,39; 83,9044
655,67; 84,8387
656,95; 84,73
658,23; 83,4539
659,51; 82,4235
660,79; 82,4828
662,07; 84,1997
663,35; 85,5418
664,63; 85,141
665,91; 83,4773
667,18; 82,1074
668,46; 82,3884
669,74; 83,7053
671,02; 85,1392
672,29; 85,2194
673,57; 83,9861
674,85; 82,7663
676,12; 82,3076
677,4; 83,3967
678,67; 84,631
679,95; 84,9242
681,22; 83,974
682,5; 82,437
683,77; 82,1798
685,05; 82,6393
686,32; 84,2401
687,6; 85,2422
688,87; 84,6203
690,15; 83,0838
691,42; 82,1068
692,69; 82,1778
693,97; 83,5628
695,24; 84,9362
696,51; 85,2602
697,78; 84,618
699,05; 82,9706
700,33; 82,2501
701,6; 82,5687
702,87; 83,5952
704,14; 84,9603
705,41; 85,0168
706,68; 84,1394
707,95; 82,6636
709,22; 82,2546
710,49; 82,5478
711,76; 83,9917
713,03; 85,4309
714,3; 85,3421
715,57; 83,9941
716,84; 82,2869
718,11; 81,7114
719,38; 82,4659
720,65; 83,6629
721,91; 85,0519
723,18; 85,1483
724,45; 84,5223
725,72; 83,1196
726,98; 81,8189
728,25; 81,946
729,52; 82,901
730,78; 84,2893
732,05; 85,1472
733,32; 84,9411
734,58; 83,6512
735,85; 82,2458
737,11; 81,8253
738,38; 82,1183
739,64; 83,4915
740,91; 84,7295
742,17; 85,2444
743,44; 84,3204
744,7; 83,039
745,96; 81,7944
747,23; 81,7303
748,49; 82,474
749,75; 84,1526
751,02; 85,3433
752,28; 85,0929
753,54; 84,0335
754,8; 82,4222
756,06; 81,7291
757,33; 81,8768
758,59; 82,7295
759,85; 84,5039
761,11; 85,4711
762,37; 85,5403
763,63; 84,2606
764,89; 82,4605
766,15; 81,6397
767,41; 81,39
768,67; 82,0582
769,93; 83,5259
771,19; 84,6742
772,45; 84,9909
773,71; 84,3168
774,96; 83,0973
776,22; 81,8524
777,48; 81,1865
778,74; 81,8003
779,99; 82,9101
781,25; 84,4474
782,51; 85,4801
783,77; 85,0237
785,02; 83,9775
786,28; 82,3014
787,53; 81,3611
788,79; 81,486
790,05; 81,8836
791,3; 83,3424
792,56; 84,7697
793,81; 85,2006
795,07; 84,7123
796,32; 83,2111
797,58; 82,1335
798,83; 81,2098
800,08; 81,0781
801,34; 82,1168
802,59; 83,4919
803,84; 84,371
805,1; 84,8502
806,35; 84,6894
807,6; 83,4289
808,85; 81,8982
810,11; 80,8042
811,36; 80,9519
812,61; 81,7867
813,86; 83,2256
815,11; 84,1847
816,36; 85,2068
817,61; 84,8163
818,86; 84,1045
820,11; 82,847
821,36; 81,7396
822,61; 81,3632
823,86; 81,2863
825,11; 82,0951
826,36; 83,2385
827,61; 84,565
828,86; 85,2433
830,11; 84,5455
831,35; 83,4825
832,6; 82,1795
833,85; 80,9027
835,1; 80,6895
836,34; 81,3321
837,59; 82,6685
838,84; 84,028
840,08; 85,0754
841,33; 85,349
842,58; 84,6596
843,82; 83,4847
845,07; 82,0492
846,31; 80,9105
847,56; 80,5294
848,8; 81,0567
850,05; 82,3765
851,29; 83,6071
852,54; 84,7361
853,78; 84,716
855,02; 84,5633
856,27; 83,5384
857,51; 82,4679
858,75; 81,2987
860; 80,5005
861,24; 80,2275
862,48; 81,3181
863,72; 82,7269
864,97; 83,852
866,21; 84,162
867,45; 84,1665
868,69; 83,859
869,93; 82,8445
871,17; 82,0224
872,41; 80,9396
873,65; 80,2496
874,89; 80,5278
876,13; 81,3301
877,37; 82,9497
878,61; 83,8095
879,85; 84,6744
881,09; 84,7786
882,33; 83,8944
883,57; 82,8719
884,8; 81,6539
886,04; 80,7647
887,28; 80,8309
888,52; 81,0896
889,76; 81,9459
890,99; 82,8606
892,23; 83,9606
893,47; 84,902
894,7; 85,2969
895,94; 85,2696
897,17; 84,0296
898,41; 82,1467
899,65; 80,7608
900,88; 79,8866
902,12; 80,1094
903,35; 81,1328
904,59; 82,2633
905,82; 83,7391
907,05; 84,2849
908,29; 84,9447
909,52; 85,1756
910,75; 84,6306
911,99; 83,7355
913,22; 81,909
914,45; 81,068
915,69; 80,2379
916,92; 80,6955
918,15; 80,8755
919,38; 81,3895
920,61; 82,6626
921,85; 84,2592
923,08; 85,0847
924,31; 85,4767
925,54; 84,9991
926,77; 83,6894
928; 82,8867
929,23; 81,6285
930,46; 80,4202
931,69; 80,6431
932,92; 80,8282
934,15; 81,5804
935,38; 82,3658
936,6; 83,4103
937,83; 84,4998
939,06; 84,7662
940,29; 84,6784
941,52; 83,6691
942,74; 83,0713
943,97; 82,0282
945,2; 80,9204
946,42; 80,5545
947,65; 80,1608
948,88; 80,5407
950,1; 81,5872
951,33; 82,7488
952,55; 83,1297
953,78; 84,4694
955,01; 84,9989
956,23; 85,3262
957,46; 84,4338
958,68; 83,0638
959,9; 81,6459
961,13; 80,4092
962,35; 79,934
963,58; 79,7827
964,8; 80,0203
966,02; 80,28
967,24; 81,8155
968,47; 83,2349
969,69; 84,5512
970,91; 84,7311
972,13; 84,6844
973,36; 85,2722
974,58; 84,2687
975,8; 83,1225
977,02; 82,0774
978,24; 81,1798
979,46; 80,282
980,68; 79,7526
981,9; 80,2979
983,12; 81,5518
984,34; 82,2964
985,56; 82,7206
986,78; 84,0296
988; 84,8342
989,22; 84,564
990,44; 84,5513
991,65; 84,2056
992,87; 83,144
994,09; 82,3403
995,31; 81,4385
996,53; 80,7843
997,74; 80,0527
998,96; 80,3824
1000,18; 81,3034
1001,39; 81,5937
1002,61; 82,4247
1003,83; 83,0422
1005,04; 84,2405
1006,26; 83,9076
1007,47; 84,0582
1008,69; 83,8713
1009,9; 82,9585
1011,12; 82,1974
1012,33; 81,9633
1013,54; 80,7817
1014,76; 79,7417
1015,97; 79,4072
1017,19; 80,2009
1018,4; 80,2207
1019,61; 81,2201
1020,83; 83,0424
1022,04; 83,6644
1023,25; 84,6903
1024,46; 86,1779
1025,67; 86,6311
1026,89; 85,0687
1028,1; 84,7434
1029,31; 83,817
1030,52; 82,2428
1031,73; 81,2001
1032,94; 81,0818
1034,15; 80,0978
1035,36; 79,9175
1036,57; 81,3566
1037,78; 80,1677
1038,99; 81,2573
1040,2; 81,3804
