"Wavelength (nm)"; "Transmittance (%)"
395,13; 82,5164
396,46; 83,2125
397,79; 82,2641
399,11; 83,426
400,44; 83,2252
401,76; 82,8447
403,08; 82,8724
404,41; 82,2352
405,73; 82,7859
407,06; 83,2167
408,38; 82,4859
409,7; 82,8849
411,03; 82,5785
412,35; 83,1016
413,67; 82,7368
414,99; 83,2537
416,31; 82,5134
417,64; 83,2483
418,96; 83,0497
420,28; 82,7303
421,6; 83,1977
422,92; 82,7182
424,24; 83,6399
425,56; 82,5496
426,88; 83,2798
428,2; 83,0977
429,52; 82,8312
430,84; 82,8996
432,16; 82,9593
433,48; 83,1272
434,8; 82,9941
436,12; 83,2716
437,44; 83,4759
438,75; 82,9054
440,07; 83,2719
441,39; 83,1233
442,71; 83,1951
444,02; 83,4049
445,34; 83,0096
446,66; 83,4
447,98; 83,5091
449,29; 82,9046
450,61; 83,4094
451,92; 83,3865
453,24; 83,4087
454,55; 83,523
455,87; 82,8718
457,18; 83,5821
458,5; 83,4962
459,81; 83,226
461,13; 83,8467
462,44; 83,2686
463,76; 83,4027
465,07; 83,5505
466,38; 83,2417
467,7; 83,2688
469,01; 83,8407
470,32; 83,2475
471,63; 83,391
472,95; 83,7322
474,26; 83,0541
475,57; 83,4788
476,88; 84,0423
478,19; 83,3775
479,5; 83,4117
480,81; 83,8089
482,13; 83,0772
483,44; 83,671
484,75; 83,9151
486,06; 83,0002
487,37; 83,3471
488,67; 83,9052
489,98; 83,1063
491,29; 82,958
492,6; 83,7926
493,91; 83,1369
495,22; 83,0032
496,53; 83,9646
497,83; 83,5832
499,14; 82,6946
500,45; 83,6641
501,76; 83,7912
503,06; 82,6882
504,37; 83,1646
505,68; 84,1637
506,98; 83,3104
508,29; 82,933
509,6; 83,6595
510,9; 83,544
512,21; 82,8895
513,51; 83,3798
514,82; 84,1139
516,12; 82,9825
517,42; 82,7119
518,73; 83,881
520,03; 84,0733
521,34; 82,9977
522,64; 83,1418
523,94; 84,0505
525,25; 83,5562
526,55; 82,7761
527,85; 83,6101
529,15; 84,1411
530,46; 83,0738
531,76; 82,6327
533,06; 83,8672
534,36; 84,1308
535,66; 82,8271
536,96; 82,6435
538,26; 83,9541
539,56; 84,1501
540,87; 82,9393
542,17; 82,9569
543,47; 84,1482
544,76; 83,9693
546,06; 82,7736
547,36; 82,7891
548,66; 84,1565
549,96; 84,2365
551,26; 82,5697
552,56; 82,5925
553,86; 84,1183
555,15; 84,0866
556,45; 82,8499
557,75; 82,7105
559,05; 83,6975
560,34; 84,2621
561,64; 82,9498
562,94; 82,4218
564,23; 83,8236
565,53; 84,6276
566,82; 83,539
568,12; 82,4094
569,41; 83,0798
570,71; 84,317
572; 84,0872
573,3; 82,8544
574,59; 82,8324
575,89; 84,3145
577,18; 84,5877
578,47; 83,2723
579,77; 82,4277
581,06; 83,5751
582,35; 84,8807
583,65; 84,3855
584,94; 82,9393
586,23; 82,6482
587,52; 84,0563
588,82; 84,9346
590,11; 84,0091
591,4; 82,8777
592,69; 83,3916
593,98; 84,6116
595,27; 84,751
596,56; 83,3991
597,85; 82,5644
599,14; 83,4763
600,43; 84,9432
601,72; 84,7866
603,01; 83,1866
604,3; 82,4243
605,59; 83,46
606,88; 84,8339
608,16; 84,863
609,45; 83,3668
610,74; 82,6178
612,03; 83,4032
613,32; 84,5901
614,6; 84,3752
615,89; 83,0606
617,18; 82,4636
618,46; 83,3786
619,75; 84,8466
621,04; 84,8556
622,32; 83,4916
623,61; 81,9701
624,89; 82,5408
626,18; 84,2342
627,46; 85,2157
628,75; 84,2708
630,03; 83,1529
631,32; 82,5794
632,6; 83,7234
633,88; 84,9184
635,17; 84,7065
636,45; 83,168
637,73; 82,3966
639,02; 83,1945
640,3; 84,5037
641,58; 85,2018
642,86; 84,1632
644,15; 82,4285
645,43; 82,3158
646,71; 83,4495
647,99; 85,0441
649,27; 85,2527
650,55; 84,0465
651,83; 82,6479
653,11; 82,5393
654,39; 83,7523
655,67; 84,8064
656,95; 84,7841
658,23; 83,6158
659,51; 82,5848
660,79; 82,5364
662,07; 84,1252
663,35; 85,4038
664,63; 84,8872
665,91; 83,2988
667,18; 82,0448
668,46; 82,4301
669,74; 83,8509
671,02; 85,2636
672,29; 85,2814
673,57; 83,935
674,85; 82,6442
676,12; 82,2268
677,4; 83,2756
678,67; 84,6312
679,95; 84,8943
681,22; 84,0438
682,5; 82,5857
683,77; 82,1306
685,05; 82,5707
686,32; 84,0444
687,6; 85,0471
688,87; 84,4263
690,15; 83,0647
691,42; 82,0685
692,69; 82,2449
693,97; 83,6772
695,24; 85,0311
696,51; 85,2697
697,78; 84,5338
699,05; 82,9056
700,33; 82,064
701,6; 82,4296
702,87; 83,5861
704,14; 84,9788
705,41; 85,1085
706,68; 84,2488
707,95; 82,7446
709,22; 82,2458
710,49; 82,4947
711,76; 83,8249
713,03; 85,2389
714,3; 85,2556
715,57; 83,9599
716,84; 82,2955
718,11; 81,7539
719,38; 82,6263
720,65; 83,7386
721,91; 85,0017
723,18; 85,0396
724,45; 84,4804
725,72; 83,0689
726,98; 81,7427
728,25; 81,9119
729,52; 82,8926
730,78; 84,3413
732,05; 85,2521
733,32; 85,0377
734,58; 83,6425
735,85; 82,2814
737,11; 81,7539
738,38; 81,9656
739,64; 83,3918
740,91; 84,593
742,17; 85,1618
743,44; 84,2927
744,7; 83,1043
745,96; 81,8696
747,23; 81,7777
748,49; 82,5693
749,75; 84,1527
751,02; 85,2463
752,28; 84,9662
753,54; 83,9452
754,8; 82,2542
756,06; 81,5993
757,33; 81,8566
758,59; 82,6683
759,85; 84,5143
761,11; 85,4191
762,37; 85,4985
763,63; 84,2924
764,89; 82,62
766,15; 81,6505
767,41; 81,2611
768,67; 81,9286
769,93; 83,4607
771,19; 84,6196
772,45; 84,9252
773,71; 84,2617
774,96; 83,0752
776,22; 81,8973
777,48; 81,1641
778,74; 81,857
779,99; 82,9445
781,25; 84,4476
782,51; 85,3984
783,77; 84,9766
785,02; 83,7984
786,28; 82,3016
787,53; 81,2883
788,79; 81,3752
790,05; 81,8341
791,3; 83,3049
792,56; 84,8335
793,81; 85,278
795,07; 84,7516
796,32; 83,2113
797,58; 82,1602
798,83; 81,1965
800,08; 81,0783
801,34; 82,062
802,59; 83,3808
803,84; 84,315
805,1; 84,7652
806,35; 84,5891
807,6; 83,3857
808,85; 81,9422
810,11; 80,9077
811,36; 81,0721
812,61; 81,7869
813,86; 83,1647
815,11; 84,1849
816,36; 85,1444
817,61; 84,7373
818,86; 83,9767
820,11; 82,7988
821,36; 81,7071
822,61; 81,3469
823,86; 81,2532
825,11; 82,0953
826,36; 83,1879
827,61; 84,548
828,86; 85,2782
830,11; 84,6158
831,35; 83,4473
832,6; 82,0364
833,85; 80,8669
835,1; 80,617
836,34; 81,1476
837,59; 82,6501
838,84; 83,9906
840,08; 84,9236
841,33; 85,2917
842,58; 84,6792
843,82; 83,6024
845,07; 82,1483
846,31; 80,9506
847,56; 80,5095
848,8; 81,199
850,05; 82,2947
851,29; 83,5451
852,54; 84,5894
853,78; 84,6317
855,02; 84,5209
856,27; 83,3878
857,51; 82,4464
858,75; 81,2549
860; 80,4564
861,24; 80,2502
862,48; 81,2957
863,72; 82,8651
864,97; 83,9451
866,21; 84,2554
867,45; 84,2841
868,69; 83,8119
869,93; 82,7489
871,17; 81,9255
872,41; 80,6949
873,65; 80,0279
874,89; 80,3538
876,13; 81,2802
877,37; 82,95
878,61; 83,8356
879,85; 84,779
881,09; 84,8846
882,33; 84,0542
883,57; 83,114
884,8; 81,7627
886,04; 80,82
887,28; 80,8035
888,52; 81,3712
889,76; 81,9747
890,99; 82,6607
892,23; 83,9899
893,47; 84,6684
894,7; 85,0625
895,94; 85,0314
897,17; 83,7889
898,41; 82,1167
899,65; 80,8227
900,88; 79,9181
902,12; 80,1413
903,35; 81,2608
904,59; 82,2637
905,82; 83,8049
907,05; 84,3841
908,29; 84,8783
909,52; 85,007
910,75; 84,3914
911,99; 83,6666
913,22; 81,9094
914,45; 80,82
915,69; 80,0234
916,92; 80,6595
918,15; 81,0969
919,38; 81,2788
920,61; 82,7008
921,85; 84,1832
923,08; 85,2798
924,31; 85,4379
925,54; 84,9598
926,77; 83,6496
928; 82,5582
929,23; 81,629
930,46; 80,3367
931,69; 80,5579
932,92; 80,6553
934,15; 81,1394
935,38; 82,0069
936,6; 83,4109
937,83; 84,3615
939,06; 84,7668
940,29; 84,5351
941,52; 83,476
942,74; 83,072
943,97; 82,1762
945,2; 81,0692
946,42; 80,6047
947,65; 80,4097
948,88; 80,6407
950,1; 81,538
951,33; 82,3012
952,55; 83,1805
953,78; 84,5205
955,01; 84,7968
956,23; 84,9682
957,46; 84,2267
958,68; 82,8535
959,9; 81,539
961,13; 80,52
962,35; 80,2189
963,58; 79,8421
964,8; 79,9008
966,02; 80,6511
967,24; 82,069
968,47; 83,3647
969,69; 84,9468
970,91; 84,932
972,13; 85,0222
973,36; 85,2731
974,58; 84,0645
975,8; 82,8485
977,02; 82,0089
978,24; 81,0406
979,46; 80,3537
980,68; 79,3963
981,9; 80,2261
983,12; 81,4791
984,34; 81,9245
985,56; 83,1033
986,78; 84,2646
988; 84,9953
989,22; 84,892
990,44; 85,1398
991,65; 84,0347
992,87; 83,4971
994,09; 82,3415
995,31; 81,254
996,53; 80,4983
997,74; 79,5642
998,96; 80,1819
1000,18; 80,4732
1001,39; 81,0635
1002,61; 81,7676
1003,83; 83,0437
1005,04; 83,8935
1006,26; 84,2646
1007,47; 84,7881
1008,69; 84,4977
1009,9; 82,7057
1011,12; 81,5428
1012,33; 81,8296
1013,54; 80,645
1014,76; 80,7416
1015,97; 79,993
1017,19; 79,9027
1018,4; 80,2229
1019,61; 81,2223
1020,83; 83,2084
1022,04; 83,6667
1023,25; 85,217
1024,46; 86,5412
1025,67; 85,7098
1026,89; 85,6358
1028,1; 83,7755
1029,31; 82,8251
1030,52; 82,2456
1031,73; 82,047
1032,94; 80,6467
1034,15; 80,1009
1035,36; 80,1486
1036,57; 79,7049
1037,78; 79,196
1038,99; 80,2625
1040,2; 81,6377
