"Wavelength (nm)"; "Transmittance (%)"
395,13; 82,2114
396,46; 82,6989
397,79; 81,9888
399,11; 82,7782
400,44; 82,0565
401,76; 82,02
403,08; 82,1482
404,41; 82,5926
405,73; 82,1218
407,06; 82,3482
408,38; 81,5284
409,7; 82,3356
411,03; 82,3793
412,35; 82,1909
413,67; 82,5716
414,99; 82,8362
416,31; 82,602
417,64; 82,7444
418,96; 82,5263
420,28; 82,7997
421,6; 83,06
422,92; 82,9218
424,24; 83,2606
425,56; 82,7599
426,88; 83,0446
428,2; 82,9264
429,52; 82,4566
430,84; 83,0943
432,16; 82,4854
433,48; 82,9212
434,8; 83,1496
436,12; 82,8434
437,44; 83,2707
438,75; 82,7858
440,07; 83,3691
441,39; 83,1232
442,71; 83,1285
444,02; 83,2317
445,34; 82,9164
446,66; 82,9842
447,98; 83,2921
449,29; 82,9008
450,61; 83,5792
451,92; 82,9326
453,24; 83,1363
454,55; 83,3979
455,87; 82,8903
457,18; 83,3574
458,5; 83,4799
459,81; 82,7249
461,13; 83,5756
462,44; 83,4496
463,76; 83,1099
465,07; 83,4942
466,38; 83,0052
467,7; 82,9813
469,01; 83,6862
470,32; 83,2346
471,63; 83,1958
472,95; 83,586
474,26; 82,8945
475,57; 83,0522
476,88; 83,7259
478,19; 83,1146
479,5; 83,2568
480,81; 83,6565
482,13; 82,8547
483,44; 83,0609
484,75; 83,6297
486,06; 82,9038
487,37; 83,001
488,67; 83,6995
489,98; 82,9709
491,29; 82,8246
492,6; 83,7474
493,91; 83,1487
495,22; 82,56
496,53; 83,6064
497,83; 83,5348
499,14; 82,4884
500,45; 83,0845
501,76; 83,6709
503,06; 82,6871
504,37; 82,797
505,68; 83,6893
506,98; 83,1352
508,29; 82,3697
509,6; 83,4912
510,9; 83,4882
512,21; 82,5717
513,51; 82,8299
514,82; 83,7331
516,12; 82,8971
517,42; 82,5055
518,73; 83,4385
520,03; 83,89
521,34; 82,5342
522,64; 82,7797
523,94; 83,9108
525,25; 83,4444
526,55; 82,3535
527,85; 83,0401
529,15; 83,7467
530,46; 82,9764
531,76; 82,3332
533,06; 83,4068
534,36; 83,7336
535,66; 82,6893
536,96; 82,2948
538,26; 83,5341
539,56; 83,6883
540,87; 82,4438
542,17; 82,574
543,47; 83,7334
544,76; 83,7481
546,06; 82,4677
547,36; 82,2245
548,66; 83,4605
549,96; 83,6824
551,26; 82,343
552,56; 82,2837
553,86; 83,4538
555,15; 83,6927
556,45; 82,5491
557,75; 82,0913
559,05; 83,3357
560,34; 84,016
561,64; 82,7635
562,94; 81,9928
564,23; 83,236
565,53; 84,0937
566,82; 83,3537
568,12; 82,1905
569,41; 82,7119
570,71; 84,017
572; 83,99
573,3; 82,7011
574,59; 82,4072
575,89; 83,5512
577,18; 84,1746
578,47; 83,3593
579,77; 82,0992
581,06; 82,9781
582,35; 84,2268
583,65; 84,1631
584,94; 82,7149
586,23; 82,413
587,52; 83,6732
588,82; 84,4418
590,11; 83,611
591,4; 82,4217
592,69; 82,5675
593,98; 83,8729
595,27; 84,3951
596,56; 83,3884
597,85; 82,2841
599,14; 82,8856
600,43; 84,4118
601,72; 84,4837
603,01; 83,1039
604,3; 82,1821
605,59; 83,0646
606,88; 84,582
608,16; 84,4338
609,45; 82,9654
610,74; 82,1385
612,03; 83,045
613,32; 84,3733
614,6; 84,365
615,89; 83,124
617,18; 82,3346
618,46; 82,8176
619,75; 84,2432
621,04; 84,5248
622,32; 83,3515
623,61; 82,1609
624,89; 82,2514
626,18; 83,7905
627,46; 84,6145
628,75; 84,0592
630,03; 82,686
631,32; 81,9046
632,6; 83,0369
633,88; 84,5284
635,17; 84,4126
636,45; 83,2011
637,73; 82,0446
639,02; 82,466
640,3; 84,0883
641,58; 84,6349
642,86; 83,9063
644,15; 82,4199
645,43; 82,0122
646,71; 83,0461
647,99; 84,2544
649,27; 84,8158
650,55; 83,6316
651,83; 82,214
653,11; 81,9687
654,39; 83,0989
655,67; 84,6077
656,95; 84,471
658,23; 83,2424
659,51; 82,1035
660,79; 82,1308
662,07; 83,3722
663,35; 84,5467
664,63; 84,491
665,91; 83,4021
667,18; 81,9548
668,46; 81,7645
669,74; 82,9994
671,02; 84,3453
672,29; 84,5237
673,57; 83,6478
674,85; 82,3803
676,12; 81,8415
677,4; 82,6612
678,67; 84,1861
679,95; 84,8792
681,22; 83,8119
682,5; 82,5731
683,77; 81,6386
685,05; 82,2743
686,32; 83,5849
687,6; 84,8028
688,87; 84,4965
690,15; 83,2504
691,42; 81,8759
692,69; 81,5482
693,97; 82,6646
695,24; 83,9648
696,51; 84,6953
697,78; 83,8573
699,05; 82,3244
700,33; 81,4447
701,6; 81,8813
702,87; 82,9981
704,14; 84,2113
705,41; 84,4914
706,68; 83,7326
707,95; 82,3251
709,22; 81,4679
710,49; 81,7608
711,76; 82,976
713,03; 84,1183
714,3; 84,4735
715,57; 83,5229
716,84; 82,1799
718,11; 81,2368
719,38; 81,7959
720,65; 82,8292
721,91; 84,2588
723,18; 84,6928
724,45; 83,987
725,72; 82,598
726,98; 81,3631
728,25; 81,2558
729,52; 82,2976
730,78; 83,562
732,05; 84,673
733,32; 84,5156
734,58; 83,4033
735,85; 81,9767
737,11; 81,064
738,38; 81,728
739,64; 82,9051
740,91; 84,1861
742,17; 84,6823
743,44; 84,0336
744,7; 82,7515
745,96; 81,7294
747,23; 81,0075
748,49; 81,8813
749,75; 83,1823
751,02; 84,7036
752,28; 84,8664
753,54; 83,7999
754,8; 82,309
756,06; 81,0648
757,33; 80,903
758,59; 81,8251
759,85; 83,4234
761,11; 84,397
762,37; 84,7494
763,63; 83,7632
764,89; 82,4881
766,15; 81,2222
767,41; 80,8401
768,67; 81,4857
769,93; 82,8203
771,19; 84,247
772,45; 84,4413
773,71; 84,0386
774,96; 82,6047
776,22; 81,5583
777,48; 80,827
778,74; 81,031
779,99; 82,2262
781,25; 83,6022
782,51; 84,3693
783,77; 84,251
785,02; 83,2527
786,28; 82,2463
787,53; 80,9982
788,79; 80,7868
790,05; 81,5651
791,3; 82,4887
792,56; 83,3795
793,81; 84,0752
795,07; 83,818
796,32; 83,1621
797,58; 81,8843
798,83; 81,0497
800,08; 80,7587
801,34; 81,3492
802,59; 82,5754
803,84; 83,5998
805,1; 84,395
806,35; 84,211
807,6; 83,1914
808,85; 81,7244
810,11; 80,7575
811,36; 80,4971
812,61; 80,9778
813,86; 82,0915
815,11; 83,355
816,36; 84,2957
817,61; 84,4391
818,86; 83,5259
820,11; 82,1526
821,36; 80,8435
822,61; 80,3564
823,86; 80,564
825,11; 81,2664
826,36; 82,8785
827,61; 83,8845
828,86; 84,2418
830,11; 83,9375
831,35; 83,0917
832,6; 81,9734
833,85; 81,0555
835,1; 80,407
836,34; 80,5376
837,59; 81,4217
838,84; 82,6387
840,08; 83,8911
841,33; 84,0299
842,58; 83,8097
843,82; 82,7523
845,07; 81,7658
846,31; 80,5907
847,56; 80,0131
848,8; 80,6976
850,05; 81,5987
851,29; 82,7404
852,54; 83,7771
853,78; 84,4144
855,02; 83,9137
856,27; 83,0137
857,51; 81,704
858,75; 80,7406
860; 79,7581
861,24; 79,7876
862,48; 80,8667
863,72; 81,886
864,97; 83,4028
866,21; 84,3733
867,45; 84,1865
868,69; 83,3972
869,93; 82,4425
871,17; 81,5977
872,41; 80,7732
873,65; 80,0444
874,89; 79,7484
876,13; 80,5969
877,37; 82,2032
878,61; 83,3107
879,85; 84,0176
881,09; 84,2757
882,33; 83,8503
883,57; 82,8028
884,8; 81,4981
886,04; 80,71
887,28; 80,3053
888,52; 80,2577
889,76; 80,4951
890,99; 81,4897
892,23; 82,7165
893,47; 83,4664
894,7; 84,1494
895,94; 83,9708
897,17; 83,0448
898,41; 81,9094
899,65; 80,7063
900,88; 80,0443
902,12; 79,4685
903,35; 79,8697
904,59; 81,0177
905,82; 82,2631
907,05; 83,3942
908,29; 84,4328
909,52; 84,4747
910,75; 83,7661
911,99; 82,8606
913,22; 81,5026
914,45; 79,932
915,69; 79,6159
916,92; 79,7609
918,15; 80,68
919,38; 81,4039
920,61; 82,576
921,85; 83,5722
923,08; 84,2083
924,31; 84,228
925,54; 83,9807
926,77; 83,2592
928; 82,0732
929,23; 81,0459
930,46; 80,0991
931,69; 79,9216
932,92; 79,8047
934,15; 80,5772
935,38; 81,3454
936,6; 82,7286
937,83; 83,8389
939,06; 83,9876
940,29; 84,1068
941,52; 83,3294
942,74; 82,2209
943,97; 81,3268
945,2; 80,1323
946,42; 79,714
947,65; 80,1931
948,88; 80,3653
950,1; 80,6509
951,33; 81,2347
952,55; 82,4738
953,78; 83,7861
955,01; 84,7985
956,23; 84,8746
957,46; 83,9476
958,68; 82,6327
959,9; 81,2142
961,13; 80,3835
962,35; 79,4524
963,58; 79,305
964,8; 79,7489
966,02; 79,9835
967,24; 80,6443
968,47; 81,7519
969,69; 83,5421
970,91; 84,0565
972,13; 84,1528
973,36; 83,7391
974,58; 82,9444
975,8; 82,1715
977,02; 80,9639
978,24; 80,0232
979,46; 79,0734
980,68; 79,1076
981,9; 78,9523
983,12; 80,0061
984,34; 81,0184
985,56; 82,3516
986,78; 83,4707
988; 84,2744
989,22; 84,4001
990,44; 84,2201
991,65; 83,247
992,87; 82,9182
994,09; 81,6869
995,31; 80,3478
996,53; 79,3949
997,74; 80,0032
998,96; 80,2808
1000,18; 81,347
1001,39; 81,2356
1002,61; 81,0992
1003,83; 81,992
1005,04; 82,7787
1006,26; 83,4826
1007,47; 84,0337
1008,69; 83,8174
1009,9; 83,1892
1011,12; 83,1136
1012,33; 81,8327
1013,54; 81,2811
1014,76; 80,0545
1015,97; 79,5617
1017,19; 79,1869
1018,4; 78,345
1019,61; 79,4574
1020,83; 80,7089
1022,04; 81,3899
1023,25; 82,0025
1024,46; 83,2597
1025,67; 83,9461
1026,89; 84,4911
1028,1; 83,8831
1029,31; 83,0256
1030,52; 81,8309
1031,73; 81,9373
1032,94; 81,3063
1034,15; 80,2558
1035,36; 79,2434
1036,57; 78,7462
1037,78; 77,5331
1038,99; 78,3629
1040,2; 81,1791
