"Wavelength (nm)"; "Transmittance (%)"
395,13; 79,1231
396,46; 80,9892
397,79; 80,2502
399,11; 80,7351
400,44; 80,3466
401,76; 79,953
403,08; 80,3227
404,41; 81,2432
405,73; 80,514
407,06; 80,3454
408,38; 80,9332
409,7; 79,8273
411,03; 80,639
412,35; 79,8324
413,67; 81,1515
414,99; 80,535
416,31; 80,5056
417,64; 80,5665
418,96; 80,0723
420,28; 80,6131
421,6; 80,3843
422,92; 80,9417
424,24; 80,6947
425,56; 80,5553
426,88; 81,0468
428,2; 80,4603
429,52; 81,1187
430,84; 80,5295
432,16; 81,2798
433,48; 81,0001
434,8; 80,8377
436,12; 81,2284
437,44; 80,5549
438,75; 80,7947
440,07; 81,2097
441,39; 80,7956
442,71; 80,8636
444,02; 81,0054
445,34; 80,9078
446,66; 81,0492
447,98; 80,6048
449,29; 81,2939
450,61; 80,9098
451,92; 80,73
453,24; 81,494
454,55; 80,7088
455,87; 80,9911
457,18; 81,0524
458,5; 80,5021
459,81; 81,0387
461,13; 81,2614
462,44; 80,7325
463,76; 81,2783
465,07; 80,9444
466,38; 80,5768
467,7; 81,2659
469,01; 81,1554
470,32; 80,807
471,63; 81,4301
472,95; 81,1828
474,26; 80,7994
475,57; 81,4422
476,88; 81,2545
478,19; 80,8385
479,5; 81,3031
480,81; 81,0015
482,13; 80,397
483,44; 81,3007
484,75; 81,1388
486,06; 80,3829
487,37; 81,0274
488,67; 81,1576
489,98; 80,264
491,29; 80,697
492,6; 81,3572
493,91; 80,3418
495,22; 80,3729
496,53; 81,4119
497,83; 80,6902
499,14; 80,1051
500,45; 81,0894
501,76; 81,1246
503,06; 80,0976
504,37; 80,7542
505,68; 81,436
506,98; 80,4279
508,29; 80,3383
509,6; 81,3034
510,9; 81,0709
512,21; 80,2356
513,51; 80,6807
514,82; 81,5218
516,12; 80,5123
517,42; 80,1334
518,73; 81,0951
520,03; 81,3234
521,34; 80,1348
522,64; 80,1601
523,94; 81,3049
525,25; 81,0171
526,55; 79,7862
527,85; 80,3874
529,15; 81,4068
530,46; 80,6949
531,76; 79,8367
533,06; 80,712
534,36; 81,6283
535,66; 80,5364
536,96; 79,7047
538,26; 80,653
539,56; 81,6177
540,87; 80,494
542,17; 79,5796
543,47; 80,8135
544,76; 81,5981
546,06; 80,4217
547,36; 79,6673
548,66; 80,7498
549,96; 81,7038
551,26; 80,5302
552,56; 79,6213
553,86; 80,4587
555,15; 81,6163
556,45; 80,8333
557,75; 79,7441
559,05; 80,0671
560,34; 81,5148
561,64; 81,3399
562,94; 79,9516
564,23; 79,8187
565,53; 81,2564
566,82; 81,6877
568,12; 80,5399
569,41; 79,7145
570,71; 80,6121
572; 81,8101
573,3; 81,2001
574,59; 79,8433
575,89; 79,8919
577,18; 81,3209
578,47; 81,942
579,77; 80,7518
581,06; 79,6492
582,35; 80,4479
583,65; 81,8819
584,94; 81,79
586,23; 80,3321
587,52; 79,8635
588,82; 81,0885
590,11; 82,2329
591,4; 81,5438
592,69; 80,0587
593,98; 80,0499
595,27; 81,4892
596,56; 82,383
597,85; 81,4108
599,14; 79,9308
600,43; 80,1602
601,72; 81,6554
603,01; 82,4058
604,3; 81,3341
605,59; 79,8391
606,88; 79,9734
608,16; 81,4592
609,45; 82,3818
610,74; 81,4778
612,03; 79,9855
613,32; 79,8076
614,6; 81,1907
615,89; 82,3656
617,18; 81,7679
618,46; 80,1488
619,75; 79,6323
621,04; 80,6924
622,32; 82,2294
623,61; 82,1306
624,89; 80,7579
626,18; 79,7139
627,46; 80,2643
628,75; 81,6652
630,03; 82,5312
631,32; 81,5624
632,6; 79,9966
633,88; 79,6323
635,17; 80,9037
636,45; 82,3197
637,73; 82,2629
639,02; 80,8356
640,3; 79,6467
641,58; 79,8723
642,86; 81,4188
644,15; 82,5775
645,43; 82,0776
646,71; 80,4429
647,99; 79,5211
649,27; 80,065
650,55; 81,6486
651,83; 82,6336
653,11; 81,8682
654,39; 80,2317
655,67; 79,4148
656,95; 80,0728
658,23; 81,7076
659,51; 82,5751
660,79; 81,8964
662,07; 80,3393
663,35; 79,3229
664,63; 79,7978
665,91; 81,4421
667,18; 82,5147
668,46; 82,1553
669,74; 80,6256
671,02; 79,3781
672,29; 79,6434
673,57; 81,0074
674,85; 82,3862
676,12; 82,4226
677,4; 81,0772
678,67; 79,7139
679,95; 79,2641
681,22; 80,3462
682,5; 81,9917
683,77; 82,7205
685,05; 81,9392
686,32; 80,4728
687,6; 79,2189
688,87; 79,6053
690,15; 81,0706
691,42; 82,3367
692,69; 82,6045
693,97; 81,469
695,24; 79,9149
696,51; 79,1618
697,78; 79,7767
699,05; 81,3144
700,33; 82,6207
701,6; 82,4667
702,87; 81,1961
704,14; 79,7208
705,41; 79,1758
706,68; 79,914
707,95; 81,3132
709,22; 82,4042
710,49; 82,4542
711,76; 81,2342
713,03; 79,7644
714,3; 79,0223
715,57; 79,4935
716,84; 80,9728
718,11; 82,2909
719,38; 82,5722
720,65; 81,6351
721,91; 80,2304
723,18; 79,2061
724,45; 79,2577
725,72; 80,3888
726,98; 81,9621
728,25; 82,6993
729,52; 82,1264
730,78; 80,8068
732,05; 79,4651
733,32; 78,9975
734,58; 79,5724
735,85; 81,0061
737,11; 82,2817
738,38; 82,6529
739,64; 81,9138
740,91; 80,517
742,17; 79,2259
743,44; 78,9455
744,7; 79,8523
745,96; 81,3141
747,23; 82,42
748,49; 82,6412
749,75; 81,6827
751,02; 80,2194
752,28; 79,1937
753,54; 78,9308
754,8; 79,789
756,06; 81,2004
757,33; 82,3997
758,59; 82,6637
759,85; 81,8089
761,11; 80,4479
762,37; 79,1374
763,63; 78,7573
764,89; 79,328
766,15; 80,6335
767,41; 82,0726
768,67; 82,6948
769,93; 82,3179
771,19; 80,9809
772,45; 79,4098
773,71; 78,6321
774,96; 78,8119
776,22; 79,9504
777,48; 81,4156
778,74; 82,5289
779,99; 82,7055
781,25; 81,7873
782,51; 80,2435
783,77; 78,8577
785,02; 78,3428
786,28; 78,8611
787,53; 80,1754
788,79; 81,6604
790,05; 82,561
791,3; 82,3956
792,56; 81,3319
793,81; 79,8947
795,07; 78,7366
796,32; 78,367
797,58; 78,8074
798,83; 80,1761
800,08; 81,6373
801,34; 82,5752
802,59; 82,5612
803,84; 81,6177
805,1; 80,2113
806,35; 78,938
807,6; 78,3916
808,85; 78,6674
810,11; 79,7701
811,36; 81,1105
812,61; 82,1745
813,86; 82,6296
815,11; 82,0728
816,36; 80,969
817,61; 79,5722
818,86; 78,5678
820,11; 78,414
821,36; 79,0429
822,61; 80,3217
823,86; 81,5735
825,11; 82,6287
826,36; 82,6195
827,61; 81,8352
828,86; 80,5348
830,11; 79,2672
831,35; 78,5342
832,6; 78,3905
833,85; 79,2094
835,1; 80,337
836,34; 81,7717
837,59; 82,6023
838,84; 82,8041
840,08; 82,0528
841,33; 80,8353
842,58; 79,5431
843,82; 78,5839
845,07; 78,2942
846,31; 78,8241
847,56; 79,8153
848,8; 81,1303
850,05; 82,2793
851,29; 82,789
852,54; 82,4671
853,78; 81,4805
855,02; 80,044
856,27; 78,7078
857,51; 78,1289
858,75; 78,3842
860; 79,0865
861,24; 80,3543
862,48; 81,4831
863,72; 82,4193
864,97; 82,7536
866,21; 82,0824
867,45; 80,9124
868,69; 79,6327
869,93; 78,4252
871,17; 77,9374
872,41; 78,035
873,65; 78,9947
874,89; 80,2402
876,13; 81,524
877,37; 82,4207
878,61; 82,8242
879,85; 82,3913
881,09; 81,1629
882,33; 79,6912
883,57; 78,3704
884,8; 77,8279
886,04; 77,8247
887,28; 78,7
888,52; 79,806
889,76; 81,11
890,99; 82,2534
892,23; 82,7742
893,47; 82,3838
894,7; 81,4583
895,94; 80,092
897,17; 79,0383
898,41; 77,9796
899,65; 77,5809
900,88; 77,9802
902,12; 79,0188
903,35; 80,3402
904,59; 81,5874
905,82; 82,6291
907,05; 83,0447
908,29; 82,6842
909,52; 81,6337
910,75; 80,1911
911,99; 79,2305
913,22; 78,147
914,45; 77,927
915,69; 78,2754
916,92; 79,0708
918,15; 80,2969
919,38; 81,5441
920,61; 82,607
921,85; 82,9616
923,08; 83,0054
924,31; 81,9419
925,54; 80,9165
926,77; 79,5702
928; 78,5508
929,23; 78,0869
930,46; 78,0381
931,69; 78,7847
932,92; 79,5689
934,15; 80,827
935,38; 81,7994
936,6; 82,781
937,83; 82,9458
939,06; 82,6735
940,29; 81,961
941,52; 80,8767
942,74; 80,002
943,97; 78,7768
945,2; 78,2833
946,42; 78,5143
947,65; 78,9179
948,88; 79,7827
950,1; 80,8212
951,33; 81,5803
952,55; 82,7321
953,78; 83,1658
955,01; 82,9855
956,23; 82,6263
957,46; 81,8234
958,68; 80,4576
959,9; 79,4683
961,13; 78,7283
962,35; 78,089
963,58; 78,0576
964,8; 78,6568
966,02; 79,8313
967,24; 80,7445
968,47; 81,6485
969,69; 82,7616
970,91; 82,9999
972,13; 83,0019
973,36; 82,3194
974,58; 81,6554
975,8; 80,5468
977,02; 79,392
978,24; 78,4428
979,46; 77,3277
980,68; 77,5643
981,9; 77,9914
983,12; 79,0087
984,34; 80,0177
985,56; 81,1659
986,78; 82,3214
988; 83,4805
989,22; 82,8826
990,44; 82,7789
991,65; 81,7901
992,87; 80,2102
994,09; 79,18
995,31; 78,175
996,53; 77,5743
997,74; 77,0819
998,96; 77,4745
1000,18; 78,3979
1001,39; 79,2265
1002,61; 80,727
1003,83; 81,6742
1005,04; 82,6285
1006,26; 83,4586
1007,47; 83,3466
1008,69; 82,3495
1009,9; 82,2262
1011,12; 80,2593
1012,33; 79,4775
1013,54; 78,8149
1014,76; 77,6285
1015,97; 77,6285
1017,19; 77,6984
1018,4; 77,7897
1019,61; 78,8571
1020,83; 78,7929
1022,04; 80,7322
1023,25; 82,3104
1024,46; 82,88
1025,67; 82,8404
1026,89; 82,9434
1028,1; 82,583
1029,31; 81,771
1030,52; 79,5426
1031,73; 79,0779
1032,94; 78,4978
1034,15; 77,9294
1035,36; 78,1289
1036,57; 78,1474
1037,78; 77,843
1038,99; 79,8245
1040,2; 78,6464
