"Wavelength (nm)"; "Transmittance (%)"
395,13; 82,7163
396,46; 82,6945
397,79; 83,7511
399,11; 83,384
400,44; 83,9653
401,76; 84,4489
403,08; 83,8697
404,41; 83,1709
405,73; 84,1251
407,06; 83,9119
408,38; 83,6843
409,7; 83,3697
411,03; 83,4033
412,35; 83,7689
413,67; 84,2412
414,99; 84,1712
416,31; 84,1887
417,64; 83,8988
418,96; 83,306
420,28; 83,3291
421,6; 83,8601
422,92; 83,9298
424,24; 84,1002
425,56; 83,3776
426,88; 84,081
428,2; 83,9496
429,52; 83,9425
430,84; 83,7112
432,16; 83,9557
433,48; 84,165
434,8; 83,5612
436,12; 84,2125
437,44; 84,089
438,75; 83,9427
440,07; 83,8656
441,39; 84,0079
442,71; 84,1845
444,02; 83,9723
445,34; 84,1381
446,66; 84,2262
447,98; 83,828
449,29; 83,8619
450,61; 84,3992
451,92; 83,5831
453,24; 84,2601
454,55; 84,0592
455,87; 83,8808
457,18; 84,4277
458,5; 84,0473
459,81; 83,8573
461,13; 84,4209
462,44; 83,9196
463,76; 84,2119
465,07; 84,0899
466,38; 83,646
467,7; 84,392
469,01; 84,3471
470,32; 83,8579
471,63; 84,176
472,95; 84,1318
474,26; 83,7339
475,57; 84,4266
476,88; 84,3461
478,19; 83,8431
479,5; 84,2929
480,81; 84,0905
482,13; 83,6332
483,44; 84,4584
484,75; 84,1771
486,06; 83,5183
487,37; 84,231
488,67; 84,3764
489,98; 83,4585
491,29; 83,8163
492,6; 84,105
493,91; 83,34
495,22; 83,7119
496,53; 84,5343
497,83; 83,8946
499,14; 83,6859
500,45; 84,4218
501,76; 83,8314
503,06; 83,2058
504,37; 84,1138
505,68; 84,3867
506,98; 83,2463
508,29; 83,6332
509,6; 84,3433
510,9; 83,7638
512,21; 83,4513
513,51; 84,2489
514,82; 84,1629
516,12; 83,1676
517,42; 83,4843
518,73; 84,5896
520,03; 83,9889
521,34; 83,2511
522,64; 84,1165
523,94; 84,3584
525,25; 83,3384
526,55; 83,1498
527,85; 84,3658
529,15; 84,3584
530,46; 83,1723
531,76; 83,5302
533,06; 84,5271
534,36; 83,9053
535,66; 82,8656
536,96; 83,6333
538,26; 84,6255
539,56; 83,8672
540,87; 83,1352
542,17; 83,7917
543,47; 84,6132
544,76; 83,6704
546,06; 82,9758
547,36; 83,7628
548,66; 84,4564
549,96; 83,9327
551,26; 82,6542
552,56; 83,543
553,86; 84,6098
555,15; 83,7648
556,45; 82,7373
557,75; 83,5153
559,05; 84,4265
560,34; 84,1013
561,64; 82,7288
562,94; 83,2432
564,23; 84,3526
565,53; 84,553
566,82; 83,0349
568,12; 82,8114
569,41; 84,0875
570,71; 84,7645
572; 83,7191
573,3; 82,77
574,59; 83,693
575,89; 85,0103
577,18; 84,5043
578,47; 83,1664
579,77; 83,3189
581,06; 84,4183
582,35; 85,0039
583,65; 83,8942
584,94; 83,0166
586,23; 83,723
587,52; 85,1346
588,82; 84,9665
590,11; 83,5066
591,4; 83,0575
592,69; 84,1982
593,98; 85,3859
595,27; 84,5887
596,56; 83,2255
597,85; 83,32
599,14; 84,5406
600,43; 85,3435
601,72; 84,4857
603,01; 83,104
604,3; 83,3307
605,59; 84,5984
606,88; 85,3968
608,16; 84,3994
609,45; 83,0423
610,74; 83,273
612,03; 84,6244
613,32; 85,3387
614,6; 84,4539
615,89; 82,8281
617,18; 82,8985
618,46; 84,5965
619,75; 85,5126
621,04; 84,6233
622,32; 83,2257
623,61; 82,6087
624,89; 83,7522
626,18; 85,0803
627,46; 85,0757
628,75; 83,5028
630,03; 82,9792
631,32; 83,4892
632,6; 85,0537
633,88; 85,6454
635,17; 84,4094
636,45; 82,8946
637,73; 82,7324
639,02; 84,1275
640,3; 85,2763
641,58; 85,1996
642,86; 83,9487
644,15; 82,8602
645,43; 83,3676
646,71; 84,6059
647,99; 85,4826
649,27; 84,9538
650,55; 83,4197
651,83; 82,7333
653,11; 83,6053
654,39; 85,067
655,67; 85,5523
656,95; 84,5554
658,23; 83,3441
659,51; 82,8405
660,79; 83,4748
662,07; 85,126
663,35; 85,5718
664,63; 84,4831
665,91; 83,013
667,18; 82,6067
668,46; 83,4787
669,74; 84,9295
671,02; 85,6757
672,29; 85,0218
673,57; 83,636
674,85; 82,7543
676,12; 82,8825
677,4; 84,4969
678,67; 85,3132
679,95; 84,8724
681,22; 83,5046
682,5; 82,6334
683,77; 82,7606
685,05; 83,9242
686,32; 85,3354
687,6; 85,4747
688,87; 84,2886
690,15; 82,8507
691,42; 82,4219
692,69; 83,0942
693,97; 84,6184
695,24; 85,8734
696,51; 85,3151
697,78; 83,9605
699,05; 82,7643
700,33; 82,6861
701,6; 83,7465
702,87; 84,867
704,14; 85,4645
705,41; 84,8048
706,68; 83,6101
707,95; 82,3924
709,22; 82,7358
710,49; 83,7978
711,76; 84,931
713,03; 85,8049
714,3; 85,3232
715,57; 83,8383
716,84; 82,1155
718,11; 82,2861
719,38; 83,5779
720,65; 84,8375
721,91; 85,6131
723,18; 84,9877
724,45; 83,8649
725,72; 82,9149
726,98; 82,182
728,25; 83,226
729,52; 84,3681
730,78; 85,4393
732,05; 85,4773
733,32; 84,4743
734,58; 82,8736
735,85; 81,9426
737,11; 82,244
738,38; 83,4385
739,64; 84,9784
740,91; 85,4206
742,17; 85,0036
743,44; 83,8372
744,7; 82,7203
745,96; 82,1306
747,23; 82,6933
748,49; 84,0626
749,75; 85,4985
751,02; 85,8272
752,28; 84,7496
753,54; 83,5208
754,8; 82,2028
756,06; 81,9373
757,33; 82,9702
758,59; 84,3648
759,85; 85,5232
761,11; 85,6775
762,37; 85,1926
763,63; 83,7935
764,89; 82,0976
766,15; 81,969
767,41; 82,3777
768,67; 83,4189
769,93; 84,7427
771,19; 85,3398
772,45; 84,8353
773,71; 83,8068
774,96; 82,5844
776,22; 81,9736
777,48; 82,1631
778,74; 83,1216
779,99; 84,6241
781,25; 85,6848
782,51; 86,0506
783,77; 84,8327
785,02; 83,3661
786,28; 81,9738
787,53; 81,5901
788,79; 82,2602
790,05; 83,1728
791,3; 84,4215
792,56; 85,264
793,81; 85,3785
795,07; 84,3581
796,32; 82,9854
797,58; 82,277
798,83; 81,5287
800,08; 81,915
801,34; 83,4624
802,59; 84,9499
803,84; 85,6903
805,1; 85,2738
806,35; 84,3565
807,6; 82,659
808,85; 81,4716
810,11; 80,9344
811,36; 81,7137
812,61; 83,0381
813,86; 84,2002
815,11; 85,2193
816,36; 85,5017
817,61; 84,7817
818,86; 83,5895
820,11; 82,0696
821,36; 81,5731
822,61; 81,7244
823,86; 82,4989
825,11; 83,6738
826,36; 84,5584
827,61; 85,3863
828,86; 85,1707
830,11; 84,0865
831,35; 82,824
832,6; 81,6028
833,85; 80,7913
835,1; 81,1591
836,34; 82,8439
837,59; 84,3448
838,84; 85,0227
840,08; 85,4901
841,33; 85,2879
842,58; 84,4042
843,82; 83,0701
845,07; 81,9468
846,31; 81,3451
847,56; 81,2483
848,8; 82,25
850,05; 83,9533
851,29; 84,2049
852,54; 84,9632
853,78; 84,543
855,02; 83,9194
856,27; 82,8231
857,51; 81,9833
858,75; 81,3388
860; 80,8956
861,24; 81,297
862,48; 82,7878
863,72; 84,6762
864,97; 85,2626
866,21; 85,3212
867,45; 84,7487
868,69; 83,5227
869,93; 82,3845
871,17; 81,2885
872,41; 80,5921
873,65; 80,5905
874,89; 81,5693
876,13; 83,0112
877,37; 84,0403
878,61; 84,8067
879,85; 85,2692
881,09; 84,8529
882,33; 83,4909
883,57; 82,303
884,8; 81,3776
886,04; 81,0889
887,28; 81,186
888,52; 82,0688
889,76; 83,1907
890,99; 84,1146
892,23; 84,8528
893,47; 85,2476
894,7; 85,1447
895,94; 84,8464
897,17; 83,1801
898,41; 81,837
899,65; 80,755
900,88; 80,6257
902,12; 81,1736
903,35; 82,3069
904,59; 83,4483
905,82; 84,9405
907,05; 85,5952
908,29; 85,5399
909,52; 85,1355
910,75; 84,1792
911,99; 83,2089
913,22; 81,6224
914,45; 81,0969
915,69; 81,1273
916,92; 81,7452
918,15; 82,4881
919,38; 83,1246
920,61; 84,4247
921,85; 85,2475
923,08; 85,661
924,31; 85,2726
925,54; 84,4332
926,77; 83,1966
928; 81,933
929,23; 80,7896
930,46; 80,3703
931,69; 80,5922
932,92; 81,254
934,15; 82,7645
935,38; 84,6046
936,6; 85,7824
937,83; 85,6492
939,06; 85,4174
940,29; 84,8615
941,52; 83,9023
942,74; 83,0133
943,97; 81,4295
945,2; 81,0099
946,42; 80,8426
947,65; 81,0451
948,88; 81,7232
950,1; 82,7244
951,33; 83,387
952,55; 84,4215
953,78; 84,8629
955,01; 84,888
956,23; 84,8041
957,46; 83,8526
958,68; 82,7374
959,9; 81,7434
961,13; 80,729
962,35; 80,9462
963,58; 81,0011
964,8; 81,874
966,02; 82,8599
967,24; 84,0147
968,47; 84,8987
969,69; 86,1834
970,91; 85,8516
972,13; 85,2781
973,36; 84,3755
974,58; 83,3671
975,8; 82,1475
977,02; 81,5778
978,24; 81,2367
979,46; 81,3294
980,68; 80,8825
981,9; 81,596
983,12; 82,5706
984,34; 83,5504
985,56; 84,5384
986,78; 85,3403
988; 85,6991
989,22; 85,6112
990,44; 85,1229
991,65; 83,8453
992,87; 82,1598
994,09; 80,6057
995,31; 80,3994
996,53; 80,0958
997,74; 80,1323
998,96; 81,2719
1000,18; 82,5313
1001,39; 83,0624
1002,61; 83,8312
1003,83; 85,2879
1005,04; 85,6134
1006,26; 86,0175
1007,47; 85,2491
1008,69; 84,5974
1009,9; 83,3166
1011,12; 83,4856
1012,33; 81,5313
1013,54; 81,449
1014,76; 80,4277
1015,97; 80,5473
1017,19; 81,0737
1018,4; 81,42
1019,61; 81,8212
1020,83; 84,6485
1022,04; 84,8075
1023,25; 85,7061
1024,46; 85,9636
1025,67; 85,8574
1026,89; 85,9742
1028,1; 83,1542
1029,31; 81,9893
1030,52; 81,5891
1031,73; 80,5275
1032,94; 81,6979
1034,15; 81,6194
1035,36; 81,4703
1036,57; 82,0216
1037,78; 82,316
1038,99; 81,7096
1040,2; 83,6173
