"Wavelength (nm)"; "Transmittance (%)"
395,13; 83,0333
396,46; 83,7408
397,79; 81,6204
399,11; 83,5026
400,44; 83,3699
401,76; 82,7365
403,08; 83,4805
404,41; 83,3033
405,73; 82,3795
407,06; 83,3185
408,38; 82,8207
409,7; 82,9268
411,03; 82,7105
412,35; 83,1633
413,67; 83,0766
414,99; 83,0926
416,31; 82,7654
417,64; 83,3036
418,96; 83,0047
420,28; 82,9354
421,6; 82,8876
422,92; 83,4205
424,24; 83,1801
425,56; 83,0829
426,88; 82,8965
428,2; 83,4462
429,52; 83,007
430,84; 83,229
432,16; 83,0886
433,48; 83,6077
434,8; 83,4823
436,12; 83,0542
437,44; 83,4753
438,75; 82,9295
440,07; 83,3649
441,39; 83,3595
442,71; 83,3469
444,02; 83,8064
445,34; 83,3133
446,66; 83,5303
447,98; 83,6432
449,29; 82,9114
450,61; 83,7781
451,92; 83,313
453,24; 83,4842
454,55; 83,6934
455,87; 83,0218
457,18; 83,5836
458,5; 83,6001
459,81; 83,5249
461,13; 83,5281
462,44; 83,4717
463,76; 83,134
465,07; 83,5483
466,38; 83,4785
467,7; 83,2787
469,01; 83,8313
470,32; 83,4388
471,63; 83,2195
472,95; 83,8422
474,26; 83,426
475,57; 83,3856
476,88; 83,9023
478,19; 83,546
479,5; 83,1418
480,81; 83,7738
482,13; 83,3709
483,44; 83,2262
484,75; 83,972
486,06; 83,6039
487,37; 83,0076
488,67; 83,8226
489,98; 83,5449
491,29; 82,9489
492,6; 83,7819
493,91; 83,7139
495,22; 83,1626
496,53; 83,6014
497,83; 83,8517
499,14; 83,0768
500,45; 83,0606
501,76; 83,9012
503,06; 83,4192
504,37; 83,0549
505,68; 83,6784
506,98; 83,7813
508,29; 83,029
509,6; 83,2297
510,9; 83,9214
512,21; 83,5004
513,51; 83,0586
514,82; 83,6352
516,12; 83,9041
517,42; 83,1361
518,73; 83,0822
520,03; 84,0666
521,34; 83,6797
522,64; 82,917
523,94; 83,612
525,25; 84,1887
526,55; 83,3233
527,85; 82,9389
529,15; 83,8359
530,46; 84,0086
531,76; 83,0176
533,06; 83,0519
534,36; 83,868
535,66; 83,9103
536,96; 82,763
538,26; 83,062
539,56; 84,1285
540,87; 83,7984
542,17; 82,808
543,47; 83,0944
544,76; 84,2153
546,06; 83,7605
547,36; 82,7488
548,66; 82,9991
549,96; 84,2247
551,26; 83,8328
552,56; 82,8807
553,86; 82,7511
555,15; 84,0872
556,45; 83,9789
557,75; 82,8952
559,05; 82,7364
560,34; 83,7907
561,64; 84,3346
562,94; 83,1584
564,23; 82,6661
565,53; 83,5197
566,82; 84,469
568,12; 83,7198
569,41; 82,7973
570,71; 83,1144
572; 84,3807
573,3; 84,4079
574,59; 83,2109
575,89; 82,7741
577,18; 84,0106
578,47; 84,5657
579,77; 83,6825
581,06; 82,7851
582,35; 83,1844
583,65; 84,4356
584,94; 84,3294
586,23; 83,119
587,52; 82,589
588,82; 83,5284
590,11; 84,6745
591,4; 84,2696
592,69; 82,9897
593,98; 82,8162
595,27; 83,9852
596,56; 84,7963
597,85; 83,9835
599,14; 82,8626
600,43; 82,9657
601,72; 84,0194
603,01; 84,7983
604,3; 83,8656
605,59; 82,7646
606,88; 82,8558
608,16; 84,1546
609,45; 84,9376
610,74; 84,0671
612,03; 82,9278
613,32; 82,7316
614,6; 83,7611
615,89; 84,7225
617,18; 84,1891
618,46; 82,9822
619,75; 82,6528
621,04; 83,9387
622,32; 84,814
623,61; 84,6422
624,89; 83,4077
626,18; 82,3853
627,46; 83,1404
628,75; 84,3035
630,03; 84,7395
631,32; 83,7261
632,6; 82,4568
633,88; 82,6993
635,17; 83,8476
636,45; 84,7428
637,73; 84,4574
639,02; 83,1936
640,3; 82,3187
641,58; 82,956
642,86; 84,2405
644,15; 84,808
645,43; 84,0253
646,71; 82,701
647,99; 82,5645
649,27; 83,4533
650,55; 84,5307
651,83; 84,7598
653,11; 83,8221
654,39; 82,5485
655,67; 82,2047
656,95; 83,4261
658,23; 84,6211
659,51; 84,6482
660,79; 83,4889
662,07; 82,5428
663,35; 82,2134
664,63; 83,1138
665,91; 84,6291
667,18; 84,6597
668,46; 83,8018
669,74; 82,5597
671,02; 82,343
672,29; 83,2525
673,57; 84,4701
674,85; 85,0254
676,12; 84,1366
677,4; 82,8663
678,67; 82,1456
679,95; 82,9131
681,22; 84,363
682,5; 85,2061
683,77; 84,8711
685,05; 83,4165
686,32; 82,2819
687,6; 82,3801
688,87; 83,5438
690,15; 84,8074
691,42; 85,0554
692,69; 83,9647
693,97; 82,7121
695,24; 82,1851
696,51; 82,5118
697,78; 83,5153
699,05; 84,6456
700,33; 84,8218
701,6; 83,6698
702,87; 82,3749
704,14; 81,9454
705,41; 82,6917
706,68; 84,0102
707,95; 85,1001
709,22; 84,9032
710,49; 83,9428
711,76; 82,5554
713,03; 81,7844
714,3; 82,3363
715,57; 83,6379
716,84; 84,6163
718,11; 84,8013
719,38; 83,6683
720,65; 82,5869
721,91; 81,7569
723,18; 82,2854
724,45; 83,2627
725,72; 84,3221
726,98; 84,9472
728,25; 84,0918
729,52; 82,7996
730,78; 81,8897
732,05; 81,8252
733,32; 82,4718
734,58; 84,2558
735,85; 85,0086
737,11; 84,78
738,38; 83,8428
739,64; 82,6652
740,91; 81,7999
742,17; 81,7901
743,44; 82,9757
744,7; 84,4018
745,96; 84,865
747,23; 84,6564
748,49; 83,3646
749,75; 82,1483
751,02; 81,7533
752,28; 82,0375
753,54; 83,2016
754,8; 84,7036
756,06; 85,1088
757,33; 84,3321
758,59; 83,1513
759,85; 82,0622
761,11; 81,5651
762,37; 82,0424
763,63; 82,8151
764,89; 84,0764
766,15; 84,7487
767,41; 84,6309
768,67; 83,2923
769,93; 82,2567
771,19; 81,2094
772,45; 81,536
773,71; 82,4017
774,96; 83,536
776,22; 84,5335
777,48; 84,8943
778,74; 84,1442
779,99; 82,9769
781,25; 81,8335
782,51; 81,2714
783,77; 81,6375
785,02; 82,9266
786,28; 84,3972
787,53; 85,1083
788,79; 84,5276
790,05; 83,6959
791,3; 82,3469
792,56; 81,3783
793,81; 81,1677
795,07; 81,7403
796,32; 82,9058
797,58; 84,06
798,83; 84,7398
800,08; 84,4058
801,34; 83,4722
802,59; 82,1149
803,84; 81,1505
805,1; 80,9215
806,35; 81,493
807,6; 82,5694
808,85; 83,8988
810,11; 84,8362
811,36; 84,6277
812,61; 83,9857
813,86; 82,7897
815,11; 81,5645
816,36; 81,0591
817,61; 81,052
818,86; 81,8568
820,11; 83,2109
821,36; 84,4534
822,61; 84,7342
823,86; 84,5387
825,11; 83,4884
826,36; 81,9863
827,61; 80,9307
828,86; 80,6033
830,11; 81,1328
831,35; 81,935
832,6; 83,3594
833,85; 84,6209
835,1; 84,9458
836,34; 84,2194
837,59; 83,1659
838,84; 81,9786
840,08; 80,9147
841,33; 80,6277
842,58; 80,9678
843,82; 82,0521
845,07; 83,5909
846,31; 84,6432
847,56; 84,7469
848,8; 84,3447
850,05; 83,3031
851,29; 82,0163
852,54; 80,9862
853,78; 80,4146
855,02; 80,9262
856,27; 81,7529
857,51; 82,5341
858,75; 84,2128
860; 84,8827
861,24; 85,0549
862,48; 83,9859
863,72; 82,7118
864,97; 81,5845
866,21; 80,8984
867,45; 80,8488
868,69; 81,0459
869,93; 81,9258
871,17; 83,1868
872,41; 84,0843
873,65; 84,9044
874,89; 84,83
876,13; 83,6586
877,37; 82,618
878,61; 81,5381
879,85; 80,636
881,09; 79,9973
882,33; 80,3515
883,57; 81,3622
884,8; 82,7127
886,04; 83,9993
887,28; 84,8228
888,52; 84,5183
889,76; 84,0073
890,99; 83,0695
892,23; 81,6165
893,47; 80,994
894,7; 80,2991
895,94; 80,3271
897,17; 81,0767
898,41; 82,0894
899,65; 83,4145
900,88; 84,6658
902,12; 84,9721
903,35; 84,7403
904,59; 83,6024
905,82; 82,4458
907,05; 81,4913
908,29; 80,3672
909,52; 80,0315
910,75; 80,6558
911,99; 81,3959
913,22; 82,423
914,45; 83,9494
915,69; 84,7152
916,92; 84,974
918,15; 84,8227
919,38; 84,0123
920,61; 82,7413
921,85; 81,1826
923,08; 80,0151
924,31; 79,6481
925,54; 80,3543
926,77; 81,1196
928; 81,7959
929,23; 83,3605
930,46; 84,2376
931,69; 85,0454
932,92; 84,9646
934,15; 84,6041
935,38; 83,0112
936,6; 81,9122
937,83; 80,6408
939,06; 80,0207
940,29; 79,7149
941,52; 79,8741
942,74; 80,749
943,97; 81,717
945,2; 83,1695
946,42; 84,3358
947,65; 85,0693
948,88; 84,7926
950,1; 84,2653
951,33; 83,1635
952,55; 82,2018
953,78; 81,3837
955,01; 80,4751
956,23; 79,6671
957,46; 80,0908
958,68; 80,8974
959,9; 81,5849
961,13; 83,171
962,35; 83,9457
963,58; 84,4678
964,8; 85,2802
966,02; 84,9349
967,24; 83,9179
968,47; 82,9602
969,69; 81,9181
970,91; 81,2512
972,13; 79,9182
973,36; 80,1017
974,58; 80,4983
975,8; 80,7517
977,02; 82,1392
978,24; 83,0704
979,46; 83,9176
980,68; 84,4944
981,9; 84,5146
983,12; 84,0043
984,34; 83,972
985,56; 82,8744
986,78; 81,6704
988; 80,5562
989,22; 80,0894
990,44; 79,6179
991,65; 80,012
992,87; 80,8845
994,09; 82,2365
995,31; 82,8803
996,53; 83,9941
997,74; 85,3114
998,96; 85,3133
1000,18; 84,7354
1001,39; 84,7638
1002,61; 83,5564
1003,83; 82,2626
1005,04; 81,2701
1006,26; 80,8514
1007,47; 80,0413
1008,69; 79,9234
1009,9; 80,5772
1011,12; 81,9096
1012,33; 82,443
1013,54; 83,1211
1014,76; 83,7993
1015,97; 84,4109
1017,19; 84,885
1018,4; 84,5882
1019,61; 84,7944
1020,83; 83,6509
1022,04; 82,8722
1023,25; 82,0138
1024,46; 80,3574
1025,67; 81,1629
1026,89; 80,2067
1028,1; 81,2961
1029,31; 80,6005
1030,52; 82,7925
1031,73; 82,3839
1032,94; 83,9732
1034,15; 84,8415
1035,36; 86,1906
1036,57; 85,8272
1037,78; 85,4106
1038,99; 83,6877
1040,2; 83,7142
