"Wavelength (nm)"; "Transmittance (%)"
395,13; 82,7808
396,46; 82,7995
397,79; 82,498
399,11; 84,1271
400,44; 82,5952
401,76; 83,102
403,08; 83,3089
404,41; 82,9804
405,73; 83,1405
407,06; 83,895
408,38; 82,957
409,7; 83,1823
411,03; 82,4686
412,35; 83,3937
413,67; 83,6225
414,99; 83,7178
416,31; 83,0653
417,64; 83,3038
418,96; 83,0049
420,28; 83,0236
421,6; 83,057
422,92; 83,2568
424,24; 83,4968
425,56; 83,083
426,88; 83,4895
428,2; 83,7351
429,52; 83,4287
430,84; 83,0232
432,16; 83,1559
433,48; 83,6733
434,8; 83,3537
436,12; 83,2449
437,44; 83,5378
438,75; 82,868
440,07; 83,7279
441,39; 83,4193
442,71; 83,4058
444,02; 83,5177
445,34; 83,3702
446,66; 83,4745
447,98; 83,5885
449,29; 83,2339
450,61; 83,8309
451,92; 83,4163
453,24; 83,2312
454,55; 83,743
455,87; 83,3123
457,18; 83,5362
458,5; 83,7398
459,81; 83,4335
461,13; 83,7965
462,44; 83,5597
463,76; 83,0054
465,07; 83,7167
466,38; 83,4374
467,7; 83,3596
469,01; 83,9894
470,32; 83,323
471,63; 83,3704
472,95; 83,9162
474,26; 83,4983
475,57; 83,5977
476,88; 84,3166
478,19; 83,5798
479,5; 83,2075
480,81; 83,8699
482,13; 83,3709
483,44; 83,2263
484,75; 84,0613
486,06; 83,4292
487,37; 83,2941
488,67; 83,9347
489,98; 83,6549
491,29; 82,922
492,6; 83,729
493,91; 83,688
495,22; 83,1881
496,53; 83,4765
497,83; 83,9003
499,14; 83,0769
500,45; 82,9915
501,76; 83,8788
503,06; 83,3975
504,37; 83,0126
505,68; 83,6785
506,98; 83,6811
508,29; 82,9704
509,6; 83,3251
510,9; 83,9401
512,21; 83,4822
513,51; 82,9695
514,82; 83,7226
516,12; 83,8184
517,42; 83,1193
518,73; 83,2972
520,03; 84,1316
521,34; 83,6477
522,64; 82,8855
523,94; 83,6276
525,25; 84,1427
526,55; 83,233
527,85; 82,9836
529,15; 83,8359
530,46; 83,9217
531,76; 82,8892
533,06; 83,0519
534,36; 83,9517
535,66; 83,9791
536,96; 82,8173
538,26; 83,1966
539,56; 84,1152
540,87; 83,8116
542,17; 82,7558
543,47; 83,1203
544,76; 84,1251
546,06; 83,7733
547,36; 82,6981
548,66; 83,0244
549,96; 84,3125
551,26; 83,8328
552,56; 82,7569
553,86; 82,7511
555,15; 84,0627
556,45; 83,8687
557,75; 82,8708
559,05; 82,8097
560,34; 83,8272
561,64; 84,3467
562,94; 83,11
564,23; 82,6299
565,53; 83,4957
566,82; 84,4212
568,12; 83,6722
569,41; 82,7854
570,71; 83,1854
572; 84,3689
573,3; 84,2905
574,59; 83,1409
575,89; 82,7277
577,18; 84,0802
578,47; 84,5311
579,77; 83,6597
581,06; 82,7509
582,35; 83,3098
583,65; 84,4811
584,94; 84,4088
586,23; 83,1869
587,52; 82,7707
588,82; 83,6532
590,11; 84,6745
591,4; 84,2127
592,69; 82,9215
593,98; 82,7935
595,27; 84,0195
596,56; 84,7392
597,85; 83,8574
599,14; 82,7938
600,43; 83,0003
601,72; 84,0539
603,01; 84,7983
604,3; 83,8311
605,59; 82,7416
606,88; 82,9134
608,16; 84,316
609,45; 85,0068
610,74; 84,0326
612,03; 82,8701
613,32; 82,7547
614,6; 83,9227
615,89; 84,5958
617,18; 83,9817
618,46; 82,7866
619,75; 82,5492
621,04; 83,7774
622,32; 84,7221
623,61; 84,5158
624,89; 83,3274
626,18; 82,4083
627,46; 83,3472
628,75; 84,5895
630,03; 84,8195
631,32; 83,7489
632,6; 82,5818
633,88; 82,8472
635,17; 84,0403
636,45; 84,7428
637,73; 84,3897
639,02; 83,0696
640,3; 82,2177
641,58; 82,9448
642,86; 84,2963
644,15; 84,7636
645,43; 83,8808
646,71; 82,5353
647,99; 82,4324
649,27; 83,4643
650,55; 84,5745
651,83; 84,6942
653,11; 83,7677
654,39; 82,4832
655,67; 82,1831
656,95; 83,5556
658,23; 84,8691
659,51; 84,8202
660,79; 83,4996
662,07; 82,5641
663,35; 82,4041
664,63; 83,3248
665,91; 84,6607
667,18; 84,5447
668,46; 83,5728
669,74; 82,487
671,02; 82,3638
672,29; 83,2319
673,57; 84,3881
674,85; 84,9438
676,12; 84,0758
677,4; 82,7451
678,67; 82,1658
679,95; 82,9733
681,22; 84,433
682,5; 85,2359
683,77; 84,9505
685,05; 83,4362
686,32; 82,3701
687,6; 82,4484
688,87; 83,612
690,15; 84,9238
691,42; 85,0073
692,69; 83,888
693,97; 82,5883
695,24; 82,1092
696,51; 82,4457
697,78; 83,4872
699,05; 84,6549
700,33; 84,7006
701,6; 83,5398
702,87; 82,218
704,14; 81,9178
705,41; 82,6917
706,68; 83,992
707,95; 85,1633
709,22; 84,8584
710,49; 83,8182
711,76; 82,4411
713,03; 81,8542
714,3; 82,4399
715,57; 83,8092
716,84; 84,7952
718,11; 84,8352
719,38; 83,7526
720,65; 82,5617
721,91; 81,824
723,18; 82,4447
724,45; 83,4899
725,72; 84,4659
726,98; 85,0068
728,25; 84,032
729,52; 82,7482
730,78; 81,8811
732,05; 81,921
733,32; 82,5419
734,58; 84,1939
735,85; 84,9375
737,11; 84,6993
738,38; 83,6985
739,64; 82,4743
740,91; 81,745
742,17; 81,7258
743,44; 82,948
744,7; 84,299
745,96; 84,8462
747,23; 84,4855
748,49; 83,1166
749,75; 82,0137
751,02; 81,6562
752,28; 82,0082
753,54; 83,2707
754,8; 84,7236
756,06; 85,1089
757,33; 84,3524
758,59; 83,1309
759,85; 81,9592
761,11; 81,5028
762,37; 82,1159
763,63; 83,0055
764,89; 84,2468
766,15; 84,9092
767,41; 84,6957
768,67; 83,1622
769,93; 82,1259
771,19; 81,1436
772,45; 81,6793
773,71; 82,5789
774,96; 83,703
776,22; 84,5896
777,48; 84,7813
778,74; 84,0307
779,99; 82,9082
781,25; 81,8568
782,51; 81,3066
783,77; 81,7084
785,02; 82,9027
786,28; 84,3366
787,53; 84,9858
788,79; 84,5029
790,05; 83,6211
791,3; 82,1959
792,56; 81,3528
793,81; 81,1419
795,07; 81,7403
796,32; 83,0113
797,58; 84,2333
798,83; 84,7803
800,08; 84,4058
801,34; 83,4998
802,59; 82,1149
803,84; 81,1645
805,1; 80,9927
806,35; 81,5792
807,6; 82,6129
808,85; 83,9721
810,11; 84,9103
811,36; 84,5075
812,61; 83,8489
813,86; 82,6516
815,11; 81,4249
816,36; 80,8242
817,61; 80,8781
818,86; 81,8089
820,11; 83,1948
821,36; 84,3879
822,61; 84,5688
823,86; 84,3718
825,11; 83,2855
826,36; 81,9863
827,61; 80,7762
828,86; 80,6901
830,11; 81,2382
831,35; 82,1119
832,6; 83,4846
833,85; 84,6932
835,1; 85,0557
836,34; 84,1824
837,59; 83,1473
838,84; 81,8842
840,08; 80,972
841,33; 80,6662
842,58; 81,142
843,82; 82,1305
845,07; 83,6109
846,31; 84,6634
847,56; 84,6864
848,8; 84,3243
850,05; 83,1793
851,29; 81,8707
852,54; 80,9231
853,78; 80,4781
855,02; 81,0333
856,27; 81,8611
857,51; 82,8174
858,75; 84,1687
860; 84,9497
861,24; 84,8515
862,48; 83,7578
863,72; 82,7119
864,97; 81,6078
866,21; 80,9921
867,45; 80,9434
868,69; 81,1173
869,93; 81,9979
871,17; 83,2355
872,41; 84,0108
873,65; 84,8549
874,89; 84,7549
876,13; 83,7092
877,37; 82,6436
878,61; 81,3063
879,85; 80,4797
881,09; 79,9447
882,33; 80,325
883,57; 81,4159
884,8; 82,6313
886,04; 83,9444
887,28; 84,6283
888,52; 84,3777
889,76; 84,0074
890,99; 82,8694
892,23; 81,4726
893,47; 80,7322
894,7; 80,152
895,94; 80,3569
897,17; 80,9867
898,41; 82,059
899,65; 83,5685
900,88; 84,6659
902,12; 84,8462
903,35; 84,4847
904,59; 83,6025
905,82; 82,4458
907,05; 81,4584
908,29; 80,267
909,52; 80,0316
910,75; 80,6216
911,99; 81,4306
913,22; 82,2828
914,45; 83,8427
915,69; 84,8236
916,92; 84,9741
918,15; 84,6011
919,38; 83,8257
920,61; 82,6657
921,85; 81,068
923,08; 80,054
924,31; 79,8838
925,54; 80,3945
926,77; 81,1197
928; 82,0025
929,23; 83,5283
930,46; 84,4077
931,69; 84,9159
932,92; 85,1393
934,15; 84,5152
935,38; 83,1917
936,6; 81,9123
937,83; 80,9198
939,06; 80,1619
940,29; 79,8585
941,52; 79,7777
942,74; 80,7004
943,97; 81,8153
945,2; 83,3675
946,42; 84,2862
947,65; 85,1194
948,88; 84,9431
950,1; 84,0155
951,33; 82,9635
952,55; 82,0509
953,78; 81,232
955,01; 80,4243
956,23; 79,8733
957,46; 79,9343
958,68; 80,8446
959,9; 81,8015
961,13; 83,2264
962,35; 83,9458
963,58; 84,351
964,8; 85,0394
966,02; 84,5628
967,24; 83,9816
968,47; 83,0906
969,69; 81,8519
970,91; 81,0504
972,13; 79,6482
973,36; 80,2385
974,58; 80,705
975,8; 81,3759
977,02; 82,2095
978,24; 83,4937
979,46; 84,4856
980,68; 83,9237
981,9; 84,4422
983,12; 84,2992
984,34; 84,0475
985,56; 82,8745
986,78; 81,9065
988; 81,2778
989,22; 80,3358
990,44; 79,5343
991,65; 80,2714
992,87; 81,1516
994,09; 82,4205
995,31; 83,0688
996,53; 84,1871
997,74; 85,1132
998,96; 85,1106
1000,18; 84,8399
1001,39; 84,6565
1002,61; 83,2257
1003,83; 81,8089
1005,04; 80,6898
1006,26; 80,2554
1007,47; 80,1632
1008,69; 80,0491
1009,9; 80,0632
1011,12; 80,8482
1012,33; 81,6239
1013,54; 82,5625
1014,76; 83,2226
1015,97; 83,5272
1017,19; 84,13
1018,4; 84,2805
1019,61; 83,0536
1020,83; 83,1599
1022,04; 82,1963
1023,25; 80,967
1024,46; 79,9984
1025,67; 79,8586
1026,89; 80,0173
1028,1; 80,3204
1029,31; 81,2036
1030,52; 82,1696
1031,73; 82,3844
1032,94; 84,4154
1034,15; 84,8419
1035,36; 84,7941
1036,57; 84,4
1037,78; 84,9212
1038,99; 84,9565
1040,2; 83,4575
