"Wavelength (nm)"; "Transmittance (%)"
395,13; 81,6296
396,46; 82,3893
397,79; 82,3384
399,11; 82,2198
400,44; 81,8661
401,76; 82,2282
403,08; 81,8254
404,41; 82,3589
405,73; 81,4024
407,06; 82,1318
408,38; 81,6269
409,7; 82,3651
411,03; 81,8808
412,35; 81,4846
413,67; 82,0382
414,99; 82,1719
416,31; 82,6803
417,64; 81,9637
418,96; 82,4061
420,28; 82,1768
421,6; 82,1968
422,92; 82,9673
424,24; 82,4924
425,56; 82,1063
426,88; 81,9781
428,2; 82,0827
429,52; 82,1193
430,84; 82,5394
432,16; 83,2003
433,48; 82,7178
434,8; 82,8385
436,12; 82,3599
437,44; 82,4682
438,75; 82,663
440,07; 82,3472
441,39; 82,5706
442,71; 82,7352
444,02; 82,6326
445,34; 83,0889
446,66; 82,5215
447,98; 82,7184
449,29; 82,6853
450,61; 82,3866
451,92; 82,7995
453,24; 82,7772
454,55; 82,4173
455,87; 83,1084
457,18; 82,9494
458,5; 82,9155
459,81; 82,8439
461,13; 82,396
462,44; 82,8918
463,76; 82,7659
465,07; 82,5036
466,38; 82,8117
467,7; 83,1934
469,01; 82,665
470,32; 83,1979
471,63; 82,6885
472,95; 82,3435
474,26; 82,933
475,57; 82,608
476,88; 82,5673
478,19; 83,1344
479,5; 83,0491
480,81; 82,4347
482,13; 83,1927
483,44; 83,1169
484,75; 82,5077
486,06; 82,9579
487,37; 82,9755
488,67; 82,3469
489,98; 82,5971
491,29; 82,9435
492,6; 82,581
493,91; 82,5536
495,22; 83,4404
496,53; 82,873
497,83; 82,5451
499,14; 83,1733
500,45; 83,0154
501,76; 82,044
503,06; 82,7685
504,37; 82,9975
505,68; 82,285
506,98; 82,4946
508,29; 83,1725
509,6; 83,0489
510,9; 82,514
512,21; 83,1388
513,51; 83,4575
514,82; 82,4192
516,12; 82,4228
517,42; 83,2768
518,73; 82,7705
520,03; 82,0069
521,34; 82,6005
522,64; 83,1881
523,94; 82,5126
525,25; 82,3827
526,55; 83,1828
527,85; 83,5935
529,15; 82,5417
530,46; 82,3772
531,76; 83,3021
533,06; 83,1179
534,36; 82,1801
535,66; 82,2267
536,96; 83,2933
538,26; 82,8838
539,56; 82,0013
540,87; 82,5514
542,17; 83,5566
543,47; 83,1553
544,76; 82,3279
546,06; 82,5812
547,36; 83,5985
548,66; 83,2841
549,96; 81,8982
551,26; 82,172
552,56; 83,2924
553,86; 83,0398
555,15; 81,9991
556,45; 82,0912
557,75; 83,1755
559,05; 83,4214
560,34; 82,5305
561,64; 82,2552
562,94; 83,2566
564,23; 83,9726
565,53; 83,0725
566,82; 82,0097
568,12; 82,6699
569,41; 83,689
570,71; 83,2838
572; 82,0608
573,3; 82,1615
574,59; 83,4777
575,89; 83,738
577,18; 82,993
578,47; 82,4325
579,77; 83,0963
581,06; 84,152
582,35; 83,929
583,65; 82,6514
584,94; 82,4239
586,23; 83,4338
587,52; 84,2048
588,82; 83,3907
590,11; 82,1632
591,4; 82,3471
592,69; 83,726
593,98; 84,1465
595,27; 83,0824
596,56; 82,3381
597,85; 82,9356
599,14; 84,0403
600,43; 84,2693
601,72; 83,2901
603,01; 82,5322
604,3; 82,9067
605,59; 84,1934
606,88; 84,3286
608,16; 83,1065
609,45; 82,3019
610,74; 82,7021
612,03; 83,9285
613,32; 84,3807
614,6; 83,1778
615,89; 82,0984
617,18; 82,4487
618,46; 83,8231
619,75; 84,3448
621,04; 83,6165
622,32; 82,7119
623,61; 82,5455
624,89; 83,5589
626,18; 84,4738
627,46; 84,2395
628,75; 83,0685
630,03; 82,1534
631,32; 82,7431
632,6; 83,945
633,88; 84,2522
635,17; 83,3236
636,45; 81,9647
637,73; 81,9806
639,02; 83,2717
640,3; 84,1313
641,58; 84,1147
642,86; 82,9373
644,15; 82,1784
645,43; 82,7659
646,71; 83,8653
647,99; 84,5684
649,27; 84,1402
650,55; 82,8673
651,83; 82,0868
653,11; 82,6855
654,39; 83,8498
655,67; 84,6547
656,95; 84,0088
658,23; 82,4434
659,51; 81,6879
660,79; 82,3371
662,07; 83,7241
663,35; 84,571
664,63; 83,888
665,91; 82,5275
667,18; 81,8673
668,46; 82,6059
669,74; 84,0054
671,02; 84,7362
672,29; 84,2348
673,57; 83,0977
674,85; 82,3482
676,12; 82,3874
677,4; 83,2949
678,67; 84,4543
679,95; 84,6242
681,22; 83,7787
682,5; 82,2186
683,77; 81,525
685,05; 82,2927
686,32; 83,796
687,6; 84,6567
688,87; 84,1026
690,15; 82,7333
691,42; 81,5844
692,69; 81,8835
693,97; 83,1884
695,24; 84,4727
696,51; 84,6897
697,78; 83,8409
699,05; 82,6477
700,33; 82,1771
701,6; 82,581
702,87; 83,6469
704,14; 84,6669
705,41; 84,8283
706,68; 84,0367
707,95; 82,7336
709,22; 81,9156
710,49; 82,0628
711,76; 83,1677
713,03; 84,2767
714,3; 84,688
715,57; 83,7732
716,84; 82,3264
718,11; 81,4675
719,38; 81,711
720,65; 82,9441
721,91; 84,2682
723,18; 84,7806
724,45; 84,1581
725,72; 82,8611
726,98; 82,0182
728,25; 82,1133
729,52; 83,0263
730,78; 84,0409
732,05; 84,683
733,32; 84,7764
734,58; 83,9867
735,85; 82,7718
737,11; 81,9077
738,38; 82,0955
739,64; 82,9165
740,91; 84,0799
742,17; 84,7236
743,44; 84,4321
744,7; 83,2865
745,96; 81,9196
747,23; 81,1942
748,49; 81,4838
749,75; 82,7612
751,02; 84,1799
752,28; 84,9171
753,54; 84,1211
754,8; 82,806
756,06; 81,5441
757,33; 81,2298
758,59; 81,8474
759,85; 83,2393
761,11; 84,4267
762,37; 84,816
763,63; 84,3817
764,89; 83,531
766,15; 82,6695
767,41; 82,1151
768,67; 82,1239
769,93; 82,8609
771,19; 83,8087
772,45; 84,4492
773,71; 84,7259
774,96; 84,1927
776,22; 82,8918
777,48; 81,5098
778,74; 80,8817
779,99; 81,2556
781,25; 82,6274
782,51; 84,0034
783,77; 84,6205
785,02; 84,2346
786,28; 83,0246
787,53; 81,7405
788,79; 80,8684
790,05; 80,9146
791,3; 81,7521
792,56; 83,3383
793,81; 84,5152
795,07; 84,697
796,32; 84,1723
797,58; 83,1436
798,83; 82,218
800,08; 81,6106
801,34; 82,0181
802,59; 82,5916
803,84; 83,4623
805,1; 84,4541
806,35; 84,7341
807,6; 84,6501
808,85; 84,1181
810,11; 83,0538
811,36; 81,8991
812,61; 81,2102
813,86; 81,1368
815,11; 82,1066
816,36; 83,2572
817,61; 84,4072
818,86; 84,744
820,11; 84,1661
821,36; 82,7346
822,61; 81,1378
823,86; 80,3865
825,11; 80,1612
826,36; 81,0083
827,61; 82,4598
828,86; 83,9045
830,11; 84,6394
831,35; 84,3314
832,6; 83,3126
833,85; 82,2479
835,1; 81,3974
836,34; 81,2211
837,59; 81,5101
838,84; 82,3843
840,08; 83,4635
841,33; 84,2462
842,58; 84,621
843,82; 84,6972
845,07; 84,3053
846,31; 83,4798
847,56; 82,5867
848,8; 81,8473
850,05; 81,448
851,29; 81,6339
852,54; 82,2512
853,78; 83,1372
855,02; 84,0181
856,27; 84,6913
857,51; 84,7733
858,75; 83,709
860; 82,3006
861,24; 80,6089
862,48; 79,7778
863,72; 79,8434
864,97; 80,6096
866,21; 82,0018
867,45; 83,4832
868,69; 84,2341
869,93; 84,3422
871,17; 83,7578
872,41; 82,4712
873,65; 81,0187
874,89; 80,3189
876,13; 80,0369
877,37; 80,8116
878,61; 81,9047
879,85; 83,2336
881,09; 84,2979
882,33; 84,9626
883,57; 84,8405
884,8; 84,412
886,04; 83,4565
887,28; 82,6994
888,52; 82,1256
889,76; 81,6434
890,99; 81,7045
892,23; 81,9996
893,47; 82,3587
894,7; 83,1134
895,94; 84,186
897,17; 84,879
898,41; 84,888
899,65; 84,4596
900,88; 83,7191
902,12; 82,4502
903,35; 81,2738
904,59; 80,1692
905,82; 79,7164
907,05; 80,1443
908,29; 81,3575
909,52; 82,4348
910,75; 83,7151
911,99; 84,7068
913,22; 84,8224
914,45; 83,6812
915,69; 81,998
916,92; 80,7157
918,15; 79,5791
919,38; 78,9988
920,61; 79,8725
921,85; 80,6941
923,08; 81,9614
924,31; 83,1605
925,54; 84,2711
926,77; 84,8286
928; 84,7168
929,23; 84,1711
930,46; 83,0535
931,69; 82,1731
932,92; 81,7019
934,15; 81,479
935,38; 81,5827
936,6; 81,8355
937,83; 82,4564
939,06; 83,0324
940,29; 83,7871
941,52; 84,1464
942,74; 84,644
943,97; 85,1042
945,2; 84,7512
946,42; 84,4124
947,65; 83,7407
948,88; 82,7692
950,1; 81,5415
951,33; 80,3331
952,55; 80,1053
953,78; 80,4153
955,01; 81,1074
956,23; 81,8389
957,46; 83,1003
958,68; 84,3411
959,9; 84,5218
961,13; 84,9669
962,35; 83,6921
963,58; 82,2976
964,8; 80,6864
966,02; 79,2639
967,24; 78,3249
968,47; 78,6137
969,69; 79,1468
970,91; 80,6311
972,13; 81,6743
973,36; 83,1465
974,58; 84,3412
975,8; 85,0407
977,02; 84,3574
978,24; 84,0242
979,46; 82,7259
980,68; 81,3419
981,9; 80,9398
983,12; 80,5833
984,34; 80,4933
985,56; 80,4102
986,78; 81,1823
988; 82,9187
989,22; 83,2137
990,44; 83,9758
991,65; 84,5246
992,87; 84,568
994,09; 84,646
995,31; 84,638
996,53; 84,2336
997,74; 84,0039
998,96; 83,8239
1000,18; 83,1078
1001,39; 82,4586
1002,61; 82,1199
1003,83; 80,7097
1005,04; 81,0239
1006,26; 80,4138
1007,47; 81,5955
1008,69; 82,4719
1009,9; 83,2308
1011,12; 84,693
1012,33; 84,8624
1013,54; 85,4472
1014,76; 85,4339
1015,97; 83,5327
1017,19; 82,8308
1018,4; 80,2614
1019,61; 78,5411
1020,83; 78,1732
1022,04; 78,1252
1023,25; 78,0363
1024,46; 78,7072
1025,67; 80,0019
1026,89; 81,5246
1028,1; 82,1675
1029,31; 84,5498
1030,52; 84,2601
1031,73; 84,5333
1032,94; 84,0261
1034,15; 83,5154
1035,36; 81,4941
1036,57; 79,8144
1037,78; 80,2206
1038,99; 79,2646
1040,2; 78,9285
